* Measurement data measured by REW V5.31.3
* Source: EXCL: Headset (USB-C to 3.5mm Headphone Jack Adapter), MICROPHONE (Master Volume), 0, volume: 0.260
* Format: 256k Log Swept Sine, 1 sweep at -12.0 dBFS with no timing reference
* Dated: Feb 9, 2025 9:57:56 PM
* REW Settings:
*  C-weighting compensation: Off
*  Target level: 75.0 dB
* Note: ; 
* Measurement: AKG K701 L1
* Smoothing: 1/6 octave
* Frequency Step: 96 ppo
* Start Frequency: 20.0 Hz
*
* Freq(Hz) SPL(dB) Phase(degrees)
20.141602 83.853 -43.6469
20.287556 83.864 -43.8953
20.434568 83.877 -44.2336
20.582645 83.889 -44.6591
20.731796 83.896 -45.1675
20.882027 83.897 -45.7532
21.033346 83.888 -46.4085
21.185763 83.868 -47.1242
21.339284 83.837 -47.8892
21.493917 83.796 -48.6911
21.649671 83.744 -49.5168
21.806553 83.685 -50.3529
21.964572 83.620 -51.1866
22.123737 83.552 -52.0065
22.284054 83.483 -52.8031
22.445534 83.417 -53.5692
22.608183 83.355 -54.3005
22.772012 83.300 -54.9956
22.937027 83.253 -55.6556
23.103238 83.216 -56.2837
23.270654 83.190 -56.8851
23.439282 83.174 -57.4660
23.609133 83.169 -58.0331
23.780215 83.176 -58.5931
23.952536 83.193 -59.1520
24.126106 83.220 -59.7152
24.300934 83.256 -60.2869
24.477028 83.301 -60.8700
24.654399 83.354 -61.4662
24.833055 83.413 -62.0763
25.013005 83.478 -62.6996
25.194260 83.547 -63.3348
25.376828 83.618 -63.9795
25.560719 83.691 -64.6311
25.745942 83.763 -65.2864
25.932508 83.834 -65.9426
26.120426 83.901 -66.5973
26.309705 83.964 -67.2485
26.500356 84.022 -67.8955
26.692388 84.075 -68.5381
26.885812 84.120 -69.1772
27.080638 84.160 -69.8138
27.276876 84.192 -70.4492
27.474535 84.219 -71.0838
27.673627 84.241 -71.7176
27.874161 84.261 -72.3491
28.076149 84.281 -72.9765
28.279600 84.305 -73.5971
28.484526 84.337 -74.2089
28.690937 84.383 -74.8113
28.898843 84.446 -75.4055
29.108256 84.530 -75.9953
29.319186 84.638 -76.5865
29.531645 84.769 -77.1864
29.745644 84.921 -77.8021
29.961193 85.090 -78.4387
30.178304 85.270 -79.0979
30.396989 85.454 -79.7768
30.617258 85.635 -80.4678
30.839123 85.807 -81.1594
31.062596 85.964 -81.8381
31.287688 86.100 -82.4903
31.514412 86.214 -83.1053
31.742778 86.303 -83.6766
31.972800 86.366 -84.2040
32.204488 86.402 -84.6930
32.437855 86.413 -85.1545
32.672913 86.398 -85.6021
32.909674 86.358 -86.0500
33.148151 86.295 -86.5102
33.388356 86.209 -86.9915
33.630302 86.103 -87.4982
33.874001 85.979 -88.0311
34.119466 85.841 -88.5878
34.366710 85.693 -89.1648
34.615745 85.538 -89.7579
34.866585 85.383 -90.3630
35.119243 85.231 -90.9764
35.373731 85.087 -91.5944
35.630064 84.954 -92.2128
35.888254 84.836 -92.8271
36.148315 84.735 -93.4329
36.410261 84.654 -94.0263
36.674104 84.594 -94.6049
36.939860 84.558 -95.1679
37.207542 84.544 -95.7168
37.477163 84.554 -96.2543
37.748738 84.587 -96.7840
38.022281 84.640 -97.3092
38.297806 84.713 -97.8322
38.575327 84.805 -98.3543
38.854860 84.914 -98.8757
39.136419 85.039 -99.3957
39.420017 85.180 -99.9141
39.705671 85.335 -100.4306
39.993395 85.506 -100.9457
40.283203 85.690 -101.4602
40.575112 85.888 -101.9750
40.869136 86.098 -102.4904
41.165290 86.318 -103.0063
41.463591 86.548 -103.5217
41.764053 86.784 -104.0348
42.066693 87.024 -104.5437
42.371525 87.266 -105.0462
42.678567 87.508 -105.5409
42.987834 87.746 -106.0275
43.299341 87.979 -106.5067
43.613106 88.204 -106.9807
43.929145 88.418 -107.4524
44.247473 88.620 -107.9252
44.568109 88.808 -108.4019
44.891068 88.980 -108.8842
45.216367 89.135 -109.3721
45.544023 89.273 -109.8638
45.874054 89.392 -110.3564
46.206476 89.494 -110.8460
46.541307 89.578 -111.3287
46.878565 89.646 -111.8013
47.218266 89.697 -112.2615
47.560429 89.734 -112.7084
47.905072 89.756 -113.1424
48.252212 89.766 -113.5649
48.601867 89.764 -113.9776
48.954056 89.752 -114.3826
49.308798 89.731 -114.7812
49.666109 89.702 -115.1743
50.026010 89.666 -115.5620
50.388520 89.626 -115.9439
50.753656 89.583 -116.3197
51.121437 89.538 -116.6894
51.491884 89.493 -117.0533
51.865016 89.450 -117.4122
52.240851 89.410 -117.7672
52.619410 89.373 -118.1192
53.000712 89.341 -118.4686
53.384777 89.314 -118.8155
53.771625 89.290 -119.1597
54.161276 89.270 -119.5004
54.553751 89.253 -119.8370
54.949070 89.238 -120.1685
55.347254 89.225 -120.4942
55.748323 89.212 -120.8132
56.152298 89.199 -121.1243
56.559201 89.185 -121.4261
56.969052 89.170 -121.7167
57.381873 89.153 -121.9947
57.797686 89.135 -122.2592
58.216512 89.115 -122.5112
58.638373 89.092 -122.7530
59.063291 89.066 -122.9888
59.491288 89.037 -123.2230
59.922386 89.003 -123.4595
60.356608 88.965 -123.7011
60.793977 88.925 -123.9492
61.234515 88.882 -124.2042
61.678246 88.839 -124.4658
62.125192 88.797 -124.7327
62.575377 88.758 -125.0032
63.028824 88.722 -125.2756
63.485557 88.691 -125.5481
63.945599 88.663 -125.8199
64.408975 88.641 -126.0910
64.875709 88.623 -126.3625
65.345825 88.610 -126.6357
65.819348 88.601 -126.9121
66.296302 88.597 -127.1930
66.776713 88.597 -127.4787
67.260604 88.601 -127.7694
67.748002 88.609 -128.0651
68.238932 88.620 -128.3658
68.733420 88.634 -128.6717
69.231490 88.651 -128.9832
69.733170 88.669 -129.3003
70.238485 88.690 -129.6228
70.747463 88.712 -129.9502
71.260128 88.735 -130.2818
71.776508 88.760 -130.6167
72.296630 88.785 -130.9541
72.820521 88.812 -131.2935
73.348209 88.839 -131.6344
73.879720 88.867 -131.9768
74.415083 88.896 -132.3208
74.954326 88.924 -132.6662
75.497475 88.953 -133.0131
76.044561 88.980 -133.3610
76.595612 89.007 -133.7096
77.150655 89.031 -134.0584
77.709720 89.053 -134.4068
78.272837 89.071 -134.7545
78.840034 89.087 -135.1014
79.411342 89.098 -135.4474
79.986789 89.106 -135.7926
80.566406 89.111 -136.1372
81.150224 89.111 -136.4811
81.738272 89.109 -136.8241
82.330581 89.104 -137.1657
82.927182 89.098 -137.5051
83.528107 89.091 -137.8415
84.133386 89.087 -138.1741
84.743051 89.086 -138.5022
85.357134 89.091 -138.8252
85.975667 89.107 -139.1432
86.598682 89.135 -139.4561
87.226212 89.179 -139.7642
87.858289 89.243 -140.0675
88.494946 89.329 -140.3660
89.136217 89.439 -140.6596
89.782135 89.572 -140.9482
90.432733 89.729 -141.2324
91.088046 89.906 -141.5133
91.748108 90.100 -141.7920
92.412952 90.306 -142.0696
93.082615 90.520 -142.3469
93.757130 90.735 -142.6248
94.436533 90.947 -142.9039
95.120859 91.150 -143.1850
95.810144 91.342 -143.4693
96.504423 91.517 -143.7572
97.203734 91.676 -144.0490
97.908112 91.816 -144.3443
98.617595 91.939 -144.6421
99.332219 92.046 -144.9416
100.052021 92.137 -145.2419
100.777039 92.216 -145.5428
101.507311 92.284 -145.8444
102.242875 92.345 -146.1468
102.983769 92.399 -146.4498
103.730032 92.448 -146.7527
104.481702 92.492 -147.0544
105.238820 92.532 -147.3533
106.001424 92.566 -147.6477
106.769554 92.592 -147.9361
107.543250 92.610 -148.2173
108.322553 92.616 -148.4905
109.107503 92.610 -148.7558
109.898141 92.591 -149.0135
110.694508 92.557 -149.2647
111.496646 92.509 -149.5111
112.304596 92.448 -149.7545
113.118402 92.375 -149.9967
113.938104 92.292 -150.2390
114.763747 92.200 -150.4822
115.595372 92.104 -150.7265
116.433024 92.004 -150.9718
117.276746 91.903 -151.2178
118.126581 91.804 -151.4640
118.982575 91.707 -151.7100
119.844772 91.613 -151.9553
120.713217 91.524 -152.1995
121.587954 91.438 -152.4420
122.469031 91.355 -152.6824
123.356492 91.273 -152.9204
124.250384 91.190 -153.1556
125.150753 91.106 -153.3881
126.057647 91.018 -153.6181
126.971113 90.924 -153.8457
127.891198 90.825 -154.0713
128.817950 90.719 -154.2950
129.751418 90.606 -154.5172
130.691651 90.487 -154.7382
131.638696 90.363 -154.9582
132.592604 90.235 -155.1775
133.553425 90.107 -155.3963
134.521208 89.980 -155.6148
135.496004 89.858 -155.8333
136.477864 89.743 -156.0519
137.466839 89.640 -156.2705
138.462981 89.552 -156.4890
139.466340 89.480 -156.7069
140.476971 89.427 -156.9234
141.494925 89.392 -157.1380
142.520256 89.376 -157.3503
143.553016 89.375 -157.5604
144.593260 89.389 -157.7690
145.641043 89.412 -157.9770
146.696418 89.440 -158.1852
147.759441 89.471 -158.3945
148.830166 89.500 -158.6050
149.908651 89.525 -158.8168
150.994951 89.543 -159.0297
152.089123 89.555 -159.2434
153.191223 89.559 -159.4577
154.301310 89.556 -159.6723
155.419441 89.548 -159.8869
156.545674 89.537 -160.1015
157.680069 89.524 -160.3164
158.822683 89.511 -160.5319
159.973578 89.498 -160.7487
161.132813 89.488 -160.9679
162.300447 89.480 -161.1902
163.476543 89.475 -161.4163
164.661162 89.473 -161.6463
165.854364 89.474 -161.8798
167.056213 89.478 -162.1158
168.266772 89.484 -162.3532
169.486102 89.494 -162.5906
170.714268 89.506 -162.8265
171.951334 89.522 -163.0594
173.197364 89.540 -163.2881
174.452424 89.562 -163.5114
175.716578 89.587 -163.7285
176.989893 89.615 -163.9382
178.272434 89.644 -164.1398
179.564270 89.674 -164.3323
180.865467 89.704 -164.5145
182.176092 89.733 -164.6856
183.496216 89.760 -164.8447
184.825905 89.786 -164.9916
186.165229 89.809 -165.1263
187.514259 89.830 -165.2499
188.873065 89.849 -165.3640
190.241717 89.868 -165.4711
191.620287 89.886 -165.5743
193.008847 89.905 -165.6767
194.407468 89.926 -165.7813
195.816225 89.947 -165.8907
197.235190 89.968 -166.0067
198.664438 89.990 -166.1302
200.104042 90.012 -166.2617
201.554078 90.032 -166.4009
203.014622 90.050 -166.5468
204.485750 90.066 -166.6983
205.967538 90.078 -166.8537
207.460064 90.087 -167.0112
208.963405 90.091 -167.1691
210.477640 90.092 -167.3259
212.002848 90.090 -167.4807
213.539108 90.084 -167.6327
215.086500 90.075 -167.7820
216.645105 90.064 -167.9289
218.215005 90.050 -168.0736
219.796281 90.034 -168.2166
221.389015 90.016 -168.3580
222.993292 89.996 -168.4980
224.609193 89.972 -168.6367
226.236804 89.944 -168.7739
227.876209 89.912 -168.9097
229.527494 89.876 -169.0443
231.190745 89.834 -169.1776
232.866048 89.787 -169.3101
234.553491 89.735 -169.4420
236.253163 89.679 -169.5736
237.965150 89.619 -169.7051
239.689544 89.557 -169.8364
241.426433 89.493 -169.9675
243.175909 89.428 -170.0984
244.938062 89.363 -170.2289
246.712984 89.299 -170.3589
248.500768 89.237 -170.4884
250.301507 89.178 -170.6173
252.115295 89.122 -170.7460
253.942226 89.069 -170.8745
255.782396 89.021 -171.0032
257.635901 88.978 -171.1321
259.502837 88.940 -171.2614
261.383301 88.908 -171.3909
263.277392 88.882 -171.5203
265.185209 88.863 -171.6496
267.106850 88.850 -171.7782
269.042417 88.842 -171.9059
270.992009 88.841 -172.0323
272.955729 88.844 -172.1572
274.933678 88.851 -172.2806
276.925961 88.862 -172.4023
278.932681 88.876 -172.5222
280.953942 88.892 -172.6403
282.989850 88.910 -172.7564
285.040511 88.931 -172.8705
287.106032 88.953 -172.9825
289.186521 88.980 -173.0927
291.282086 89.010 -173.2013
293.392836 89.046 -173.3090
295.518881 89.087 -173.4158
297.660333 89.135 -173.5219
299.817302 89.188 -173.6274
301.989902 89.247 -173.7323
304.178245 89.309 -173.8366
306.382446 89.374 -173.9405
308.602620 89.438 -174.0438
310.838882 89.501 -174.1466
313.091348 89.560 -174.2487
315.360137 89.614 -174.3497
317.645367 89.662 -174.4493
319.947156 89.701 -174.5470
322.265625 89.732 -174.6424
324.600895 89.754 -174.7350
326.953086 89.766 -174.8244
329.322323 89.767 -174.9102
331.708729 89.757 -174.9918
334.112427 89.737 -175.0690
336.533543 89.707 -175.1418
338.972204 89.667 -175.2105
341.428536 89.617 -175.2756
343.902668 89.560 -175.3377
346.394729 89.495 -175.3974
348.904848 89.426 -175.4556
351.433156 89.353 -175.5130
353.979786 89.280 -175.5705
356.544869 89.208 -175.6290
359.128540 89.140 -175.6891
361.730934 89.079 -175.7515
364.352185 89.029 -175.8165
366.992431 88.991 -175.8844
369.651810 88.968 -175.9556
372.330459 88.961 -176.0301
375.028519 88.973 -176.1084
377.746130 89.002 -176.1904
380.483434 89.048 -176.2762
383.240574 89.110 -176.3660
386.017693 89.184 -176.4598
388.814937 89.270 -176.5576
391.632450 89.363 -176.6596
394.470380 89.461 -176.7660
397.328875 89.562 -176.8772
400.208084 89.662 -176.9934
403.108157 89.760 -177.1150
406.029245 89.855 -177.2422
408.971500 89.945 -177.3750
411.935076 90.031 -177.5132
414.920127 90.112 -177.6560
417.926810 90.189 -177.8028
420.955280 90.261 -177.9523
424.005695 90.329 -178.1030
427.078215 90.395 -178.2531
430.173000 90.457 -178.4004
433.290211 90.517 -178.5423
436.430010 90.574 -178.6755
439.592562 90.627 -178.7962
442.778031 90.676 -178.8998
445.986583 90.719 -178.9814
449.218386 90.756 -179.0356
452.473607 90.785 -179.0569
455.752418 90.806 -179.0403
459.054987 90.817 -178.9812
462.381489 90.819 -178.8768
465.732096 90.814 -178.7263
469.106983 90.801 -178.5318
472.506325 90.782 -178.2982
475.930301 90.759 -178.0335
479.379088 90.734 -177.7481
482.852867 90.708 -177.4537
486.351817 90.682 -177.1622
489.876123 90.657 -176.8845
493.425968 90.633 -176.6294
497.001536 90.608 -176.4032
500.603014 90.584 -176.2094
504.230589 90.558 -176.0489
507.884452 90.530 -175.9205
511.564792 90.499 -175.8212
515.271802 90.465 -175.7472
519.005673 90.427 -175.6937
522.766602 90.386 -175.6559
526.554785 90.342 -175.6290
530.370418 90.299 -175.6086
534.213700 90.257 -175.5909
538.084833 90.218 -175.5731
541.984018 90.186 -175.5531
545.911457 90.161 -175.5302
549.867357 90.145 -175.5046
553.851922 90.137 -175.4775
557.865362 90.139 -175.4505
561.907884 90.148 -175.4250
565.979700 90.162 -175.4021
570.081022 90.179 -175.3823
574.212064 90.198 -175.3655
578.373042 90.215 -175.3510
582.564171 90.230 -175.3379
586.785671 90.239 -175.3256
591.037762 90.243 -175.3131
595.320665 90.240 -175.3000
599.634604 90.229 -175.2860
603.979804 90.211 -175.2710
608.356491 90.185 -175.2552
612.764893 90.152 -175.2383
617.205240 90.113 -175.2201
621.677763 90.068 -175.2005
626.182696 90.019 -175.1787
630.720274 89.967 -175.1539
635.290733 89.915 -175.1250
639.894312 89.864 -175.0905
644.531250 89.815 -175.0485
649.201789 89.771 -174.9970
653.906173 89.733 -174.9339
658.644647 89.701 -174.8575
663.417457 89.676 -174.7664
668.224854 89.659 -174.6602
673.067086 89.648 -174.5389
677.944408 89.642 -174.4036
682.857073 89.641 -174.2564
687.805336 89.643 -174.1000
692.789457 89.647 -173.9380
697.809695 89.652 -173.7744
702.866312 89.655 -173.6132
707.959571 89.657 -173.4584
713.089738 89.657 -173.3129
718.257080 89.652 -173.1787
723.461867 89.644 -173.0564
728.704370 89.632 -172.9459
733.984862 89.616 -172.8457
739.303619 89.597 -172.7543
744.660918 89.575 -172.6697
750.057038 89.550 -172.5901
755.492260 89.524 -172.5139
760.966869 89.495 -172.4397
766.481148 89.465 -172.3661
772.035387 89.432 -172.2923
777.629873 89.397 -172.2174
783.264900 89.359 -172.1407
788.940760 89.317 -172.0617
794.657750 89.271 -171.9800
800.416168 89.219 -171.8955
806.216313 89.161 -171.8080
812.058489 89.097 -171.7180
817.943000 89.026 -171.6261
823.870152 88.949 -171.5330
829.840255 88.865 -171.4394
835.853619 88.776 -171.3457
841.910559 88.681 -171.2516
848.011390 88.582 -171.1563
854.156430 88.481 -171.0585
860.346000 88.377 -170.9566
866.580422 88.271 -170.8487
872.860020 88.167 -170.7333
879.185124 88.064 -170.6093
885.556062 87.964 -170.4762
891.973166 87.868 -170.3340
898.436771 87.779 -170.1833
904.947215 87.696 -170.0251
911.504835 87.622 -169.8605
918.109975 87.557 -169.6908
924.762978 87.502 -169.5174
931.464192 87.457 -169.3412
938.213966 87.422 -169.1624
945.012651 87.398 -168.9811
951.860602 87.383 -168.7963
958.758176 87.378 -168.6068
965.705733 87.380 -168.4110
972.703635 87.390 -168.2071
979.752246 87.406 -167.9939
986.851935 87.429 -167.7703
994.003071 87.458 -167.5364
1001.206027 87.492 -167.2925
1008.461179 87.533 -167.0400
1015.768904 87.580 -166.7809
1023.129584 87.634 -166.5177
1030.543603 87.696 -166.2532
1038.011347 87.766 -165.9903
1045.533205 87.845 -165.7319
1053.109569 87.932 -165.4804
1060.740836 88.027 -165.2382
1068.427401 88.130 -165.0070
1076.169666 88.239 -164.7878
1083.968035 88.352 -164.5808
1091.822915 88.467 -164.3850
1099.734713 88.582 -164.1979
1107.703844 88.696 -164.0157
1115.730723 88.804 -163.8335
1123.815768 88.907 -163.6460
1131.959400 89.003 -163.4477
1140.162045 89.091 -163.2338
1148.424129 89.172 -163.0006
1156.746083 89.246 -162.7459
1165.128342 89.313 -162.4685
1173.571343 89.377 -162.1678
1182.075524 89.437 -161.8440
1190.641331 89.496 -161.4967
1199.269209 89.555 -161.1259
1207.959608 89.615 -160.7314
1216.712981 89.678 -160.3141
1225.529785 89.745 -159.8762
1234.410479 89.815 -159.4212
1243.355526 89.890 -158.9539
1252.365393 89.969 -158.4799
1261.440549 90.050 -158.0051
1270.581467 90.132 -157.5343
1279.788624 90.215 -157.0713
1289.062500 90.298 -156.6176
1298.403578 90.378 -156.1733
1307.812346 90.457 -155.7368
1317.289293 90.533 -155.3056
1326.834914 90.608 -154.8771
1336.449707 90.680 -154.4490
1346.134173 90.751 -154.0199
1355.888816 90.821 -153.5890
1365.714145 90.891 -153.1563
1375.610673 90.960 -152.7221
1385.578915 91.029 -152.2874
1395.619391 91.097 -151.8529
1405.732624 91.165 -151.4191
1415.919142 91.233 -150.9862
1426.179476 91.301 -150.5532
1436.514160 91.370 -150.1189
1446.923734 91.440 -149.6816
1457.408740 91.513 -149.2398
1467.969724 91.591 -148.7926
1478.607238 91.673 -148.3402
1489.321836 91.761 -147.8845
1500.114076 91.857 -147.4287
1510.984521 91.960 -146.9772
1521.933737 92.070 -146.5349
1532.962297 92.187 -146.1064
1544.070773 92.310 -145.6953
1555.259747 92.438 -145.3041
1566.529800 92.569 -144.9338
1577.881521 92.704 -144.5845
1589.315501 92.840 -144.2557
1600.832336 92.977 -143.9466
1612.432627 93.113 -143.6560
1624.116978 93.250 -143.3818
1635.886000 93.385 -143.1210
1647.740304 93.519 -142.8693
1659.680509 93.653 -142.6220
1671.707238 93.786 -142.3744
1683.821118 93.920 -142.1229
1696.022780 94.056 -141.8660
1708.312860 94.195 -141.6039
1720.692000 94.337 -141.3386
1733.160843 94.482 -141.0723
1745.720041 94.632 -140.8068
1758.370248 94.786 -140.5436
1771.112124 94.943 -140.2843
1783.946332 95.105 -140.0318
1796.873543 95.271 -139.7913
1809.894429 95.441 -139.5694
1823.009670 95.614 -139.3735
1836.219950 95.789 -139.2113
1849.525956 95.966 -139.0895
1862.928384 96.143 -139.0134
1876.427931 96.320 -138.9862
1890.025301 96.496 -139.0083
1903.721204 96.669 -139.0768
1917.516352 96.839 -139.1863
1931.411466 97.004 -139.3301
1945.407270 97.166 -139.5009
1959.504493 97.323 -139.6919
1973.703870 97.475 -139.8976
1988.006142 97.623 -140.1147
2002.412054 97.767 -140.3435
2016.922357 97.907 -140.5878
2031.537808 98.043 -140.8554
2046.259169 98.175 -141.1565
2061.087206 98.303 -141.5021
2076.022694 98.424 -141.9022
2091.066410 98.538 -142.3638
2106.219139 98.644 -142.8904
2121.481671 98.740 -143.4814
2136.854802 98.826 -144.1324
2152.339333 98.902 -144.8360
2167.936071 98.968 -145.5828
2183.645829 99.024 -146.3621
2199.469427 99.072 -147.1636
2215.407689 99.114 -147.9788
2231.461446 99.151 -148.8018
2247.631536 99.185 -149.6298
2263.918800 99.217 -150.4626
2280.324089 99.248 -151.3019
2296.848258 99.277 -152.1498
2313.492167 99.307 -153.0086
2330.256685 99.334 -153.8797
2347.142685 99.360 -154.7643
2364.151049 99.383 -155.6621
2381.282662 99.402 -156.5721
2398.538418 99.417 -157.4919
2415.919216 99.426 -158.4179
2433.425962 99.431 -159.3449
2451.059570 99.429 -160.2668
2468.820958 99.423 -161.1774
2486.711052 99.412 -162.0708
2504.730786 99.399 -162.9426
2522.881098 99.383 -163.7906
2541.162934 99.368 -164.6151
2559.577248 99.355 -165.4184
2578.125000 99.345 -166.2044
2596.807157 99.339 -166.9779
2615.624692 99.339 -167.7436
2634.578586 99.344 -168.5055
2653.669829 99.355 -169.2659
2672.899414 99.372 -170.0251
2692.268345 99.395 -170.7812
2711.777632 99.422 -171.5305
2731.428290 99.453 -172.2676
2751.221345 99.487 -172.9870
2771.157829 99.524 -173.6832
2791.238781 99.564 -174.3515
2811.465248 99.604 -174.9889
2831.838284 99.645 -175.5940
2852.358952 99.685 -176.1676
2873.028321 99.723 -176.7119
2893.847468 99.758 -177.2305
2914.817480 99.787 -177.7274
2935.939449 99.809 -178.2061
2957.214476 99.822 -178.6689
2978.643672 99.824 -179.1162
3000.228152 99.815 -179.5461
3021.969041 99.794 -179.9550
3043.867475 99.759 179.6623
3065.924593 99.712 179.3115
3088.141547 99.654 178.9979
3110.519493 99.585 178.7263
3133.059600 99.507 178.4995
3155.763041 99.421 178.3190
3178.631001 99.330 178.1843
