* Measurement data measured by REW V5.31.3
* Source: EXCL: Headset (USB-C to 3.5mm Headphone Jack Adapter), MICROPHONE (Master Volume), 0, volume: 0.260
* Format: 256k Log Swept Sine, 1 sweep at -12.0 dBFS with no timing reference
* Dated: Feb 9, 2025 10:07:40 PM
* REW Settings:
*  C-weighting compensation: Off
*  Target level: 75.0 dB
* Note: ; 
* Measurement: AKG K701 R10
* Smoothing: 1/6 octave
* Frequency Step: 96 ppo
* Start Frequency: 20.0 Hz
*
* Freq(Hz) SPL(dB) Phase(degrees)
20.141602 81.262 -39.2916
20.287556 81.259 -39.6111
20.434568 81.253 -40.0461
20.582645 81.245 -40.5917
20.731796 81.233 -41.2410
20.882027 81.216 -41.9849
21.033346 81.195 -42.8119
21.185763 81.168 -43.7076
21.339284 81.135 -44.6553
21.493917 81.098 -45.6357
21.649671 81.055 -46.6288
21.806553 81.009 -47.6140
21.964572 80.960 -48.5716
22.123737 80.908 -49.4842
22.284054 80.855 -50.3378
22.445534 80.804 -51.1226
22.608183 80.754 -51.8339
22.772012 80.709 -52.4724
22.937027 80.668 -53.0436
23.103238 80.635 -53.5576
23.270654 80.610 -54.0279
23.439282 80.594 -54.4699
23.609133 80.588 -54.8996
23.780215 80.592 -55.3320
23.952536 80.608 -55.7797
24.126106 80.634 -56.2519
24.300934 80.672 -56.7543
24.477028 80.722 -57.2885
24.654399 80.783 -57.8529
24.833055 80.854 -58.4432
25.013005 80.937 -59.0536
25.194260 81.029 -59.6778
25.376828 81.131 -60.3097
25.560719 81.239 -60.9444
25.745942 81.352 -61.5783
25.932508 81.468 -62.2093
26.120426 81.583 -62.8364
26.309705 81.695 -63.4589
26.500356 81.799 -64.0764
26.692388 81.894 -64.6879
26.885812 81.977 -65.2915
27.080638 82.046 -65.8844
27.276876 82.100 -66.4634
27.474535 82.142 -67.0249
27.673627 82.171 -67.5658
27.874161 82.192 -68.0843
28.076149 82.209 -68.5799
28.279600 82.228 -69.0547
28.484526 82.254 -69.5130
28.690937 82.293 -69.9612
28.898843 82.351 -70.4073
29.108256 82.433 -70.8602
29.319186 82.540 -71.3278
29.531645 82.672 -71.8168
29.745644 82.827 -72.3310
29.961193 83.003 -72.8713
30.178304 83.192 -73.4352
30.396989 83.389 -74.0178
30.617258 83.587 -74.6119
30.839123 83.780 -75.2098
31.062596 83.961 -75.8037
31.287688 84.125 -76.3870
31.514412 84.267 -76.9542
31.742778 84.384 -77.5019
31.972800 84.472 -78.0279
32.204488 84.530 -78.5313
32.437855 84.555 -79.0120
32.672913 84.548 -79.4702
32.909674 84.508 -79.9067
33.148151 84.438 -80.3230
33.388356 84.340 -80.7217
33.630302 84.217 -81.1071
33.874001 84.073 -81.4851
34.119466 83.913 -81.8639
34.366710 83.742 -82.2531
34.615745 83.566 -82.6626
34.866585 83.391 -83.1024
35.119243 83.222 -83.5802
35.373731 83.065 -84.1014
35.630064 82.923 -84.6679
35.888254 82.801 -85.2783
36.148315 82.702 -85.9282
36.410261 82.629 -86.6111
36.674104 82.582 -87.3194
36.939860 82.561 -88.0448
37.207542 82.565 -88.7794
37.477163 82.592 -89.5159
37.748738 82.639 -90.2473
38.022281 82.704 -90.9673
38.297806 82.784 -91.6702
38.575327 82.878 -92.3507
38.854860 82.984 -93.0046
39.136419 83.102 -93.6291
39.420017 83.233 -94.2231
39.705671 83.377 -94.7876
39.993395 83.535 -95.3256
40.283203 83.707 -95.8417
40.575112 83.893 -96.3414
40.869136 84.091 -96.8303
41.165290 84.300 -97.3135
41.463591 84.518 -97.7946
41.764053 84.743 -98.2761
42.066693 84.972 -98.7590
42.371525 85.204 -99.2428
42.678567 85.437 -99.7263
42.987834 85.668 -100.2076
43.299341 85.895 -100.6840
43.613106 86.119 -101.1527
43.929145 86.336 -101.6104
44.247473 86.545 -102.0543
44.568109 86.745 -102.4816
44.891068 86.934 -102.8909
45.216367 87.111 -103.2816
45.544023 87.274 -103.6553
45.874054 87.422 -104.0150
46.206476 87.553 -104.3654
46.541307 87.667 -104.7113
46.878565 87.763 -105.0571
47.218266 87.841 -105.4050
47.560429 87.899 -105.7555
47.905072 87.941 -106.1072
48.252212 87.966 -106.4581
48.601867 87.978 -106.8071
48.954056 87.978 -107.1549
49.308798 87.968 -107.5039
49.666109 87.951 -107.8570
50.026010 87.928 -108.2167
50.388520 87.900 -108.5836
50.753656 87.868 -108.9561
51.121437 87.835 -109.3307
51.491884 87.801 -109.7035
51.865016 87.768 -110.0707
52.240851 87.738 -110.4294
52.619410 87.711 -110.7777
53.000712 87.688 -111.1146
53.384777 87.669 -111.4399
53.771625 87.653 -111.7536
54.161276 87.640 -112.0567
54.553751 87.630 -112.3503
54.949070 87.620 -112.6360
55.347254 87.610 -112.9147
55.748323 87.599 -113.1872
56.152298 87.587 -113.4534
56.559201 87.573 -113.7129
56.969052 87.558 -113.9660
57.381873 87.540 -114.2136
57.797686 87.520 -114.4582
58.216512 87.499 -114.7035
58.638373 87.477 -114.9544
59.063291 87.455 -115.2165
59.491288 87.433 -115.4953
59.922386 87.411 -115.7942
60.356608 87.392 -116.1142
60.793977 87.373 -116.4524
61.234515 87.356 -116.8035
61.678246 87.339 -117.1603
62.125192 87.323 -117.5164
62.575377 87.308 -117.8673
63.028824 87.294 -118.2107
63.485557 87.281 -118.5462
63.945599 87.271 -118.8749
64.408975 87.264 -119.1981
64.875709 87.260 -119.5173
65.345825 87.259 -119.8342
65.819348 87.262 -120.1501
66.296302 87.269 -120.4659
66.776713 87.279 -120.7821
67.260604 87.293 -121.0988
67.748002 87.310 -121.4158
68.238932 87.329 -121.7335
68.733420 87.351 -122.0526
69.231490 87.376 -122.3740
69.733170 87.402 -122.6989
70.238485 87.430 -123.0282
70.747463 87.459 -123.3626
71.260128 87.489 -123.7025
71.776508 87.521 -124.0477
72.296630 87.554 -124.3975
72.820521 87.588 -124.7510
73.348209 87.622 -125.1070
73.879720 87.657 -125.4646
74.415083 87.692 -125.8227
74.954326 87.727 -126.1810
75.497475 87.761 -126.5396
76.044561 87.795 -126.8992
76.595612 87.827 -127.2606
77.150655 87.857 -127.6246
77.709720 87.885 -127.9915
78.272837 87.910 -128.3609
78.840034 87.932 -128.7324
79.411342 87.950 -129.1046
79.986789 87.965 -129.4765
80.566406 87.976 -129.8467
81.150224 87.983 -130.2144
81.738272 87.987 -130.5788
82.330581 87.988 -130.9396
82.927182 87.987 -131.2965
83.528107 87.985 -131.6493
84.133386 87.986 -131.9979
84.743051 87.990 -132.3422
85.357134 88.000 -132.6823
85.975667 88.021 -133.0182
86.598682 88.055 -133.3503
87.226212 88.105 -133.6786
87.858289 88.175 -134.0034
88.494946 88.268 -134.3251
89.136217 88.385 -134.6437
89.782135 88.526 -134.9599
90.432733 88.690 -135.2742
91.088046 88.876 -135.5877
91.748108 89.079 -135.9012
92.412952 89.295 -136.2157
93.082615 89.517 -136.5314
93.757130 89.741 -136.8482
94.436533 89.961 -137.1659
95.120859 90.172 -137.4837
95.810144 90.371 -137.8012
96.504423 90.554 -138.1176
97.203734 90.719 -138.4325
97.908112 90.867 -138.7457
98.617595 90.998 -139.0570
99.332219 91.113 -139.3667
100.052021 91.213 -139.6754
100.777039 91.302 -139.9843
101.507311 91.381 -140.2940
102.242875 91.452 -140.6056
102.983769 91.517 -140.9197
103.730032 91.577 -141.2368
104.481702 91.632 -141.5574
105.238820 91.682 -141.8817
106.001424 91.726 -142.2099
106.769554 91.762 -142.5419
107.543250 91.788 -142.8774
108.322553 91.803 -143.2157
109.107503 91.806 -143.5560
109.898141 91.795 -143.8976
110.694508 91.769 -144.2398
111.496646 91.729 -144.5820
112.304596 91.675 -144.9236
113.118402 91.609 -145.2641
113.938104 91.532 -145.6025
114.763747 91.447 -145.9382
115.595372 91.356 -146.2705
116.433024 91.261 -146.5991
117.276746 91.164 -146.9238
118.126581 91.066 -147.2453
118.982575 90.970 -147.5641
119.844772 90.876 -147.8811
120.713217 90.784 -148.1966
121.587954 90.694 -148.5105
122.469031 90.605 -148.8219
123.356492 90.517 -149.1294
124.250384 90.428 -149.4315
125.150753 90.337 -149.7270
126.057647 90.243 -150.0149
126.971113 90.144 -150.2948
127.891198 90.040 -150.5670
128.817950 89.930 -150.8321
129.751418 89.814 -151.0908
130.691651 89.692 -151.3440
131.638696 89.565 -151.5921
132.592604 89.435 -151.8353
133.553425 89.303 -152.0736
134.521208 89.174 -152.3068
135.496004 89.049 -152.5353
136.477864 88.933 -152.7596
137.466839 88.830 -152.9806
138.462981 88.741 -153.1994
139.466340 88.670 -153.4171
140.476971 88.618 -153.6347
141.494925 88.586 -153.8531
142.520256 88.572 -154.0733
143.553016 88.575 -154.2956
144.593260 88.592 -154.5204
145.641043 88.618 -154.7476
146.696418 88.649 -154.9769
147.759441 88.682 -155.2077
148.830166 88.713 -155.4396
149.908651 88.738 -155.6721
150.994951 88.757 -155.9049
152.089123 88.769 -156.1381
153.191223 88.772 -156.3719
154.301310 88.769 -156.6067
155.419441 88.760 -156.8428
156.545674 88.747 -157.0803
157.680069 88.732 -157.3194
158.822683 88.717 -157.5604
159.973578 88.703 -157.8035
161.132813 88.692 -158.0490
162.300447 88.684 -158.2975
163.476543 88.680 -158.5494
164.661162 88.679 -158.8056
165.854364 88.683 -159.0667
167.056213 88.690 -159.3338
168.266772 88.702 -159.6076
169.486102 88.717 -159.8891
170.714268 88.737 -160.1792
171.951334 88.760 -160.4789
173.197364 88.787 -160.7894
174.452424 88.816 -161.1116
175.716578 88.848 -161.4462
176.989893 88.880 -161.7929
178.272434 88.912 -162.1507
179.564270 88.941 -162.5172
180.865467 88.966 -162.8883
182.176092 88.985 -163.2581
183.496216 88.997 -163.6196
184.825905 89.000 -163.9639
186.165229 88.996 -164.2820
187.514259 88.984 -164.5650
188.873065 88.966 -164.8051
190.241717 88.943 -164.9969
191.620287 88.917 -165.1378
193.008847 88.891 -165.2278
194.407468 88.865 -165.2696
195.816225 88.842 -165.2670
197.235190 88.821 -165.2243
198.664438 88.805 -165.1457
200.104042 88.792 -165.0349
201.554078 88.784 -164.8953
203.014622 88.780 -164.7310
204.485750 88.782 -164.5469
205.967538 88.788 -164.3502
207.460064 88.800 -164.1497
208.963405 88.817 -163.9561
210.477640 88.840 -163.7807
212.002848 88.867 -163.6346
213.539108 88.897 -163.5273
215.086500 88.930 -163.4652
216.645105 88.964 -163.4516
218.215005 88.996 -163.4865
219.796281 89.027 -163.5666
221.389015 89.053 -163.6869
222.993292 89.074 -163.8409
224.609193 89.088 -164.0214
226.236804 89.094 -164.2216
227.876209 89.093 -164.4353
229.527494 89.082 -164.6575
231.190745 89.062 -164.8842
232.866048 89.034 -165.1128
234.553491 88.998 -165.3413
236.253163 88.956 -165.5688
237.965150 88.907 -165.7947
239.689544 88.853 -166.0186
241.426433 88.797 -166.2403
243.175909 88.738 -166.4594
244.938062 88.678 -166.6754
246.712984 88.617 -166.8880
248.500768 88.558 -167.0969
250.301507 88.501 -167.3021
252.115295 88.446 -167.5038
253.942226 88.395 -167.7020
255.782396 88.348 -167.8972
257.635901 88.306 -168.0893
259.502837 88.268 -168.2786
261.383301 88.237 -168.4652
263.277392 88.210 -168.6491
265.185209 88.190 -168.8306
267.106850 88.176 -169.0092
269.042417 88.167 -169.1847
270.992009 88.164 -169.3561
272.955729 88.166 -169.5228
274.933678 88.172 -169.6844
276.925961 88.182 -169.8406
278.932681 88.195 -169.9917
280.953942 88.211 -170.1384
282.989850 88.229 -170.2814
285.040511 88.250 -170.4216
287.106032 88.275 -170.5595
289.186521 88.302 -170.6958
291.282086 88.334 -170.8308
293.392836 88.371 -170.9650
295.518881 88.413 -171.0983
297.660333 88.461 -171.2307
299.817302 88.513 -171.3619
301.989902 88.571 -171.4917
304.178245 88.632 -171.6198
306.382446 88.695 -171.7458
308.602620 88.757 -171.8696
310.838882 88.818 -171.9910
313.091348 88.876 -172.1098
315.360137 88.928 -172.2261
317.645367 88.974 -172.3397
319.947156 89.013 -172.4508
322.265625 89.043 -172.5596
324.600895 89.064 -172.6663
326.953086 89.076 -172.7711
329.322323 89.078 -172.8744
331.708729 89.070 -172.9764
334.112427 89.051 -173.0772
336.533543 89.022 -173.1771
338.972204 88.984 -173.2761
341.428536 88.936 -173.3742
343.902668 88.880 -173.4716
346.394729 88.816 -173.5681
348.904848 88.748 -173.6635
351.433156 88.675 -173.7578
353.979786 88.601 -173.8510
356.544869 88.528 -173.9431
359.128540 88.459 -174.0343
361.730934 88.396 -174.1248
364.352185 88.343 -174.2146
366.992431 88.301 -174.3040
369.651810 88.274 -174.3932
372.330459 88.264 -174.4823
375.028519 88.270 -174.5716
377.746130 88.294 -174.6611
380.483434 88.334 -174.7511
383.240574 88.390 -174.8416
386.017693 88.458 -174.9324
388.814937 88.537 -175.0233
391.632450 88.623 -175.1141
394.470380 88.715 -175.2044
397.328875 88.808 -175.2941
400.208084 88.901 -175.3827
403.108157 88.993 -175.4701
406.029245 89.081 -175.5556
408.971500 89.165 -175.6388
411.935076 89.245 -175.7186
414.920127 89.321 -175.7936
417.926810 89.393 -175.8625
420.955280 89.463 -175.9236
424.005695 89.530 -175.9756
427.078215 89.597 -176.0173
430.173000 89.664 -176.0479
433.290211 89.731 -176.0667
436.430010 89.798 -176.0733
439.592562 89.866 -176.0676
442.778031 89.932 -176.0495
445.986583 89.997 -176.0194
449.218386 90.058 -175.9779
452.473607 90.116 -175.9259
455.752418 90.167 -175.8649
459.054987 90.212 -175.7963
462.381489 90.249 -175.7221
465.732096 90.277 -175.6440
469.106983 90.297 -175.5640
472.506325 90.307 -175.4837
475.930301 90.310 -175.4042
479.379088 90.305 -175.3263
482.852867 90.293 -175.2504
486.351817 90.276 -175.1766
489.876123 90.254 -175.1053
493.425968 90.228 -175.0368
497.001536 90.200 -174.9722
500.603014 90.170 -174.9131
504.230589 90.137 -174.8613
507.884452 90.104 -174.8192
511.564792 90.068 -174.7894
515.271802 90.031 -174.7742
519.005673 89.993 -174.7757
522.766602 89.953 -174.7951
526.554785 89.914 -174.8331
530.370418 89.874 -174.8890
534.213700 89.837 -174.9614
538.084833 89.803 -175.0475
541.984018 89.773 -175.1442
545.911457 89.750 -175.2477
549.867357 89.733 -175.3544
553.851922 89.722 -175.4611
557.865362 89.718 -175.5648
561.907884 89.719 -175.6637
565.979700 89.725 -175.7561
570.081022 89.732 -175.8414
574.212064 89.740 -175.9195
578.373042 89.747 -175.9905
582.564171 89.751 -176.0553
586.785671 89.751 -176.1147
591.037762 89.744 -176.1700
595.320665 89.732 -176.2222
599.634604 89.712 -176.2727
603.979804 89.684 -176.3222
608.356491 89.649 -176.3714
612.764893 89.607 -176.4207
617.205240 89.557 -176.4700
621.677763 89.502 -176.5189
626.182696 89.441 -176.5665
630.720274 89.377 -176.6110
635.290733 89.310 -176.6501
639.894312 89.243 -176.6805
644.531250 89.176 -176.6981
649.201789 89.113 -176.6984
653.906173 89.054 -176.6765
658.644647 89.001 -176.6282
663.417457 88.955 -176.5502
668.224854 88.916 -176.4411
673.067086 88.884 -176.3022
677.944408 88.860 -176.1377
682.857073 88.842 -175.9538
687.805336 88.829 -175.7585
692.789457 88.820 -175.5592
697.809695 88.811 -175.3618
702.866312 88.801 -175.1691
707.959571 88.789 -174.9814
713.089738 88.774 -174.7961
718.257080 88.754 -174.6096
723.461867 88.730 -174.4182
728.704370 88.703 -174.2192
733.984862 88.674 -174.0123
739.303619 88.643 -173.7991
744.660918 88.613 -173.5831
750.057038 88.584 -173.3690
755.492260 88.556 -173.1614
760.966869 88.529 -172.9645
766.481148 88.503 -172.7813
772.035387 88.478 -172.6135
777.629873 88.451 -172.4616
783.264900 88.422 -172.3250
788.940760 88.390 -172.2026
794.657750 88.352 -172.0926
800.416168 88.309 -171.9927
806.216313 88.259 -171.9008
812.058489 88.202 -171.8146
817.943000 88.137 -171.7320
823.870152 88.065 -171.6511
829.840255 87.985 -171.5705
835.853619 87.899 -171.4893
841.910559 87.808 -171.4068
848.011390 87.712 -171.3227
854.156430 87.614 -171.2372
860.346000 87.513 -171.1503
866.580422 87.412 -171.0624
872.860020 87.311 -170.9737
879.185124 87.212 -170.8842
885.556062 87.115 -170.7936
891.973166 87.022 -170.7014
898.436771 86.934 -170.6069
904.947215 86.852 -170.5095
911.504835 86.777 -170.4087
918.109975 86.709 -170.3040
924.762978 86.650 -170.1951
931.464192 86.600 -170.0817
938.213966 86.559 -169.9633
945.012651 86.527 -169.8393
951.860602 86.504 -169.7093
958.758176 86.489 -169.5726
965.705733 86.481 -169.4283
972.703635 86.480 -169.2753
979.752246 86.484 -169.1122
986.851935 86.494 -168.9371
994.003071 86.507 -168.7481
1001.206027 86.525 -168.5433
1008.461179 86.548 -168.3212
1015.768904 86.576 -168.0811
1023.129584 86.610 -167.8229
1030.543603 86.650 -167.5475
1038.011347 86.699 -167.2563
1045.533205 86.756 -166.9514
1053.109569 86.822 -166.6352
1060.740836 86.898 -166.3102
1068.427401 86.983 -165.9790
1076.169666 87.076 -165.6439
1083.968035 87.176 -165.3068
1091.822915 87.281 -164.9693
1099.734713 87.390 -164.6325
1107.703844 87.500 -164.2975
1115.730723 87.609 -163.9647
1123.815768 87.715 -163.6344
1131.959400 87.817 -163.3057
1140.162045 87.912 -162.9774
1148.424129 88.002 -162.6476
1156.746083 88.085 -162.3142
1165.128342 88.162 -161.9758
1173.571343 88.235 -161.6316
1182.075524 88.304 -161.2813
1190.641331 88.371 -160.9252
1199.269209 88.436 -160.5635
1207.959608 88.501 -160.1960
1216.712981 88.565 -159.8214
1225.529785 88.630 -159.4374
1234.410479 88.694 -159.0402
1243.355526 88.758 -158.6254
1252.365393 88.821 -158.1885
1261.440549 88.884 -157.7254
1270.581467 88.946 -157.2334
1279.788624 89.009 -156.7114
1289.062500 89.072 -156.1607
1298.403578 89.135 -155.5845
1307.812346 89.200 -154.9874
1317.289293 89.267 -154.3752
1326.834914 89.337 -153.7537
1336.449707 89.408 -153.1290
1346.134173 89.482 -152.5066
1355.888816 89.559 -151.8911
1365.714145 89.637 -151.2863
1375.610673 89.717 -150.6940
1385.578915 89.797 -150.1142
1395.619391 89.878 -149.5456
1405.732624 89.959 -148.9854
1415.919142 90.040 -148.4309
1426.179476 90.123 -147.8795
1436.514160 90.207 -147.3293
1446.923734 90.294 -146.7796
1457.408740 90.385 -146.2304
1467.969724 90.481 -145.6822
1478.607238 90.582 -145.1357
1489.321836 90.691 -144.5908
1500.114076 90.807 -144.0477
1510.984521 90.931 -143.5069
1521.933737 91.063 -142.9704
1532.962297 91.204 -142.4418
1544.070773 91.354 -141.9265
1555.259747 91.512 -141.4310
1566.529800 91.677 -140.9629
1577.881521 91.849 -140.5290
1589.315501 92.025 -140.1352
1600.832336 92.204 -139.7857
1612.432627 92.385 -139.4828
1624.116978 92.568 -139.2274
1635.886000 92.750 -139.0193
1647.740304 92.931 -138.8571
1659.680509 93.110 -138.7387
1671.707238 93.288 -138.6614
1683.821118 93.463 -138.6212
1696.022780 93.636 -138.6132
1708.312860 93.807 -138.6315
1720.692000 93.976 -138.6698
1733.160843 94.143 -138.7221
1745.720041 94.309 -138.7841
1758.370248 94.474 -138.8532
1771.112124 94.639 -138.9285
1783.946332 94.804 -139.0112
1796.873543 94.969 -139.1032
1809.894429 95.134 -139.2077
1823.009670 95.298 -139.3280
1836.219950 95.461 -139.4678
1849.525956 95.624 -139.6307
1862.928384 95.786 -139.8209
1876.427931 95.947 -140.0426
1890.025301 96.105 -140.2995
1903.721204 96.262 -140.5938
1917.516352 96.414 -140.9254
1931.411466 96.562 -141.2911
1945.407270 96.705 -141.6855
1959.504493 96.841 -142.1016
1973.703870 96.971 -142.5329
1988.006142 97.094 -142.9743
2002.412054 97.211 -143.4233
2016.922357 97.322 -143.8813
2031.537808 97.426 -144.3533
2046.259169 97.525 -144.8477
2061.087206 97.617 -145.3744
2076.022694 97.701 -145.9432
2091.066410 97.777 -146.5609
2106.219139 97.843 -147.2308
2121.481671 97.897 -147.9520
2136.854802 97.940 -148.7192
2152.339333 97.971 -149.5243
2167.936071 97.990 -150.3569
2183.645829 97.998 -151.2053
2199.469427 97.995 -152.0579
2215.407689 97.985 -152.9038
2231.461446 97.968 -153.7345
2247.631536 97.947 -154.5444
2263.918800 97.924 -155.3322
2280.324089 97.901 -156.1003
2296.848258 97.880 -156.8546
2313.492167 97.859 -157.6024
2330.256685 97.841 -158.3515
2347.142685 97.823 -159.1082
2364.151049 97.804 -159.8763
2381.282662 97.783 -160.6563
2398.538418 97.758 -161.4455
2415.919216 97.729 -162.2387
2433.425962 97.694 -163.0289
2451.059570 97.653 -163.8082
2468.820958 97.606 -164.5679
2486.711052 97.554 -165.2995
2504.730786 97.498 -165.9951
2522.881098 97.439 -166.6483
2541.162934 97.379 -167.2549
2559.577248 97.322 -167.8143
2578.125000 97.268 -168.3295
2596.807157 97.221 -168.8067
2615.624692 97.182 -169.2539
2634.578586 97.151 -169.6787
2653.669829 97.131 -170.0861
2672.899414 97.119 -170.4779
2692.268345 97.118 -170.8538
2711.777632 97.125 -171.2124
2731.428290 97.142 -171.5526
2751.221345 97.168 -171.8742
2771.157829 97.201 -172.1779
2791.238781 97.241 -172.4648
2811.465248 97.285 -172.7361
2831.838284 97.331 -172.9925
2852.358952 97.378 -173.2343
2873.028321 97.422 -173.4602
2893.847468 97.461 -173.6679
2914.817480 97.494 -173.8535
2935.939449 97.520 -174.0125
2957.214476 97.537 -174.1403
2978.643672 97.546 -174.2339
3000.228152 97.546 -174.2917
3021.969041 97.538 -174.3143
3043.867475 97.523 -174.3042
3065.924593 97.502 -174.2658
3088.141547 97.475 -174.2044
3110.519493 97.444 -174.1262
3133.059600 97.408 -174.0363
3155.763041 97.368 -173.9375
3178.631001 97.325 -173.8300
