* Measurement data measured by REW V5.31.3
* Source: EXCL: Headset (USB-C to 3.5mm Headphone Jack Adapter), MICROPHONE (Master Volume), 0, volume: 0.260
* Format: 256k Log Swept Sine, 1 sweep at -12.0 dBFS with no timing reference
* Dated: Feb 9, 2025 9:38:03 PM
* REW Settings:
*  C-weighting compensation: Off
*  Target level: 75.0 dB
* Note: ; 
* Measurement: HD650 (Worn) R1
* Smoothing: 1/6 octave
* Frequency Step: 96 ppo
* Start Frequency: 20.0 Hz
*
* Freq(Hz) SPL(dB) Phase(degrees)
20.141602 86.365 -27.2225
20.287556 86.384 -27.3935
20.434568 86.407 -27.6202
20.582645 86.432 -27.8938
20.731796 86.455 -28.2053
20.882027 86.474 -28.5464
21.033346 86.486 -28.9106
21.185763 86.491 -29.2929
21.339284 86.487 -29.6900
21.493917 86.475 -30.1003
21.649671 86.456 -30.5231
21.806553 86.430 -30.9589
21.964572 86.399 -31.4083
22.123737 86.365 -31.8723
22.284054 86.331 -32.3516
22.445534 86.297 -32.8466
22.608183 86.267 -33.3573
22.772012 86.241 -33.8829
22.937027 86.221 -34.4224
23.103238 86.208 -34.9741
23.270654 86.204 -35.5362
23.439282 86.209 -36.1064
23.609133 86.224 -36.6828
23.780215 86.249 -37.2633
23.952536 86.286 -37.8464
24.126106 86.332 -38.4308
24.300934 86.390 -39.0158
24.477028 86.456 -39.6011
24.654399 86.532 -40.1863
24.833055 86.615 -40.7717
25.013005 86.703 -41.3569
25.194260 86.797 -41.9416
25.376828 86.892 -42.5251
25.560719 86.989 -43.1061
25.745942 87.086 -43.6829
25.932508 87.182 -44.2539
26.120426 87.276 -44.8171
26.309705 87.367 -45.3710
26.500356 87.455 -45.9147
26.692388 87.539 -46.4479
26.885812 87.621 -46.9710
27.080638 87.698 -47.4855
27.276876 87.773 -47.9930
27.474535 87.844 -48.4958
27.673627 87.913 -48.9960
27.874161 87.981 -49.4954
28.076149 88.050 -49.9954
28.279600 88.121 -50.4969
28.484526 88.197 -51.0006
28.690937 88.280 -51.5068
28.898843 88.375 -52.0163
29.108256 88.483 -52.5299
29.319186 88.607 -53.0490
29.531645 88.747 -53.5755
29.745644 88.903 -54.1115
29.961193 89.074 -54.6591
30.178304 89.256 -55.2195
30.396989 89.444 -55.7935
30.617258 89.635 -56.3804
30.839123 89.822 -56.9783
31.062596 89.999 -57.5844
31.287688 90.163 -58.1950
31.514412 90.307 -58.8065
31.742778 90.428 -59.4154
31.972800 90.524 -60.0190
32.204488 90.591 -60.6154
32.437855 90.630 -61.2039
32.672913 90.640 -61.7846
32.909674 90.622 -62.3579
33.148151 90.577 -62.9244
33.388356 90.508 -63.4844
33.630302 90.419 -64.0382
33.874001 90.314 -64.5855
34.119466 90.196 -65.1260
34.366710 90.070 -65.6598
34.615745 89.942 -66.1875
34.866585 89.815 -66.7102
35.119243 89.694 -67.2302
35.373731 89.582 -67.7500
35.630064 89.484 -68.2721
35.888254 89.401 -68.7989
36.148315 89.335 -69.3318
36.410261 89.287 -69.8712
36.674104 89.259 -70.4164
36.939860 89.251 -70.9660
37.207542 89.263 -71.5182
37.477163 89.295 -72.0715
37.748738 89.347 -72.6248
38.022281 89.419 -73.1780
38.297806 89.511 -73.7319
38.575327 89.622 -74.2877
38.854860 89.751 -74.8468
39.136419 89.898 -75.4101
39.420017 90.061 -75.9780
39.705671 90.240 -76.5500
39.993395 90.433 -77.1244
40.283203 90.641 -77.6991
40.575112 90.861 -78.2715
40.869136 91.093 -78.8393
41.165290 91.336 -79.4005
41.463591 91.588 -79.9538
41.764053 91.846 -80.4987
42.066693 92.110 -81.0350
42.371525 92.376 -81.5629
42.678567 92.642 -82.0824
42.987834 92.906 -82.5932
43.299341 93.165 -83.0948
43.613106 93.418 -83.5865
43.929145 93.664 -84.0677
44.247473 93.902 -84.5380
44.568109 94.129 -84.9973
44.891068 94.345 -85.4457
45.216367 94.549 -85.8836
45.544023 94.739 -86.3112
45.874054 94.913 -86.7292
46.206476 95.071 -87.1388
46.541307 95.212 -87.5423
46.878565 95.335 -87.9430
47.218266 95.439 -88.3453
47.560429 95.526 -88.7541
47.905072 95.595 -89.1742
48.252212 95.648 -89.6094
48.601867 95.686 -90.0624
48.954056 95.713 -90.5338
49.308798 95.729 -91.0228
49.666109 95.737 -91.5270
50.026010 95.740 -92.0427
50.388520 95.739 -92.5661
50.753656 95.736 -93.0931
51.121437 95.732 -93.6203
51.491884 95.729 -94.1451
51.865016 95.729 -94.6659
52.240851 95.731 -95.1822
52.619410 95.736 -95.6940
53.000712 95.746 -96.2017
53.384777 95.759 -96.7058
53.771625 95.776 -97.2071
54.161276 95.796 -97.7063
54.553751 95.818 -98.2043
54.949070 95.841 -98.7018
55.347254 95.864 -99.1994
55.748323 95.886 -99.6975
56.152298 95.907 -100.1959
56.559201 95.925 -100.6942
56.969052 95.942 -101.1918
57.381873 95.955 -101.6879
57.797686 95.967 -102.1822
58.216512 95.975 -102.6748
58.638373 95.980 -103.1668
59.063291 95.983 -103.6600
59.491288 95.981 -104.1565
59.922386 95.977 -104.6581
60.356608 95.969 -105.1659
60.793977 95.959 -105.6798
61.234515 95.946 -106.1988
61.678246 95.932 -106.7210
62.125192 95.918 -107.2444
62.575377 95.903 -107.7670
63.028824 95.890 -108.2875
63.485557 95.878 -108.8048
63.945599 95.868 -109.3185
64.408975 95.861 -109.8288
64.875709 95.857 -110.3357
65.345825 95.855 -110.8398
65.819348 95.857 -111.3415
66.296302 95.863 -111.8413
66.776713 95.872 -112.3396
67.260604 95.884 -112.8367
67.748002 95.899 -113.3330
68.238932 95.916 -113.8289
68.733420 95.936 -114.3252
69.231490 95.957 -114.8226
69.733170 95.981 -115.3221
70.238485 96.006 -115.8244
70.747463 96.032 -116.3300
71.260128 96.061 -116.8388
71.776508 96.091 -117.3503
72.296630 96.123 -117.8637
72.820521 96.157 -118.3781
73.348209 96.191 -118.8924
73.879720 96.227 -119.4062
74.415083 96.262 -119.9190
74.954326 96.297 -120.4304
75.497475 96.330 -120.9400
76.044561 96.363 -121.4474
76.595612 96.393 -121.9523
77.150655 96.422 -122.4542
77.709720 96.447 -122.9531
78.272837 96.470 -123.4490
78.840034 96.489 -123.9420
79.411342 96.505 -124.4323
79.986789 96.518 -124.9200
80.566406 96.526 -125.4051
81.150224 96.530 -125.8872
81.738272 96.532 -126.3661
82.330581 96.530 -126.8414
82.927182 96.527 -127.3126
83.528107 96.523 -127.7796
84.133386 96.521 -128.2423
84.743051 96.522 -128.7009
85.357134 96.530 -129.1554
85.975667 96.547 -129.6057
86.598682 96.578 -130.0520
87.226212 96.625 -130.4941
87.858289 96.691 -130.9323
88.494946 96.780 -131.3666
89.136217 96.893 -131.7973
89.782135 97.030 -132.2248
90.432733 97.191 -132.6494
91.088046 97.372 -133.0714
91.748108 97.570 -133.4910
92.412952 97.781 -133.9085
93.082615 97.999 -134.3238
93.757130 98.218 -134.7370
94.436533 98.434 -135.1482
95.120859 98.641 -135.5573
95.810144 98.835 -135.9645
96.504423 99.014 -136.3701
97.203734 99.176 -136.7746
97.908112 99.320 -137.1786
98.617595 99.446 -137.5828
99.332219 99.555 -137.9877
100.052021 99.650 -138.3936
100.777039 99.731 -138.8002
101.507311 99.803 -139.2073
102.242875 99.866 -139.6142
102.983769 99.923 -140.0203
103.730032 99.974 -140.4250
104.481702 100.020 -140.8278
105.238820 100.062 -141.2282
106.001424 100.097 -141.6257
106.769554 100.125 -142.0199
107.543250 100.145 -142.4107
108.322553 100.155 -142.7979
109.107503 100.152 -143.1817
109.898141 100.137 -143.5625
110.694508 100.108 -143.9408
111.496646 100.065 -144.3168
112.304596 100.009 -144.6909
113.118402 99.941 -145.0633
113.938104 99.863 -145.4339
114.763747 99.777 -145.8030
115.595372 99.685 -146.1705
116.433024 99.590 -146.5365
117.276746 99.494 -146.9010
118.126581 99.398 -147.2641
118.982575 99.304 -147.6256
119.844772 99.213 -147.9857
120.713217 99.125 -148.3441
121.587954 99.039 -148.7012
122.469031 98.955 -149.0574
123.356492 98.872 -149.4129
124.250384 98.788 -149.7683
125.150753 98.702 -150.1238
126.057647 98.613 -150.4796
126.971113 98.520 -150.8355
127.891198 98.420 -151.1914
128.817950 98.314 -151.5470
129.751418 98.202 -151.9021
130.691651 98.084 -152.2565
131.638696 97.961 -152.6102
132.592604 97.833 -152.9632
133.553425 97.705 -153.3155
134.521208 97.577 -153.6669
135.496004 97.454 -154.0175
136.477864 97.338 -154.3669
137.466839 97.234 -154.7146
138.462981 97.143 -155.0602
139.466340 97.069 -155.4033
140.476971 97.013 -155.7434
141.494925 96.975 -156.0806
142.520256 96.955 -156.4150
143.553016 96.951 -156.7469
144.593260 96.961 -157.0769
145.641043 96.979 -157.4053
146.696418 97.003 -157.7324
147.759441 97.028 -158.0586
148.830166 97.052 -158.3839
149.908651 97.071 -158.7083
150.994951 97.083 -159.0316
152.089123 97.089 -159.3535
153.191223 97.086 -159.6740
154.301310 97.077 -159.9927
155.419441 97.063 -160.3098
156.545674 97.044 -160.6253
157.680069 97.024 -160.9392
158.822683 97.002 -161.2517
159.973578 96.982 -161.5628
161.132813 96.963 -161.8727
162.300447 96.947 -162.1813
163.476543 96.934 -162.4885
164.661162 96.924 -162.7942
165.854364 96.917 -163.0981
167.056213 96.914 -163.4003
168.266772 96.914 -163.7007
169.486102 96.919 -163.9993
170.714268 96.928 -164.2961
171.951334 96.941 -164.5910
173.197364 96.958 -164.8842
174.452424 96.980 -165.1756
175.716578 97.006 -165.4653
176.989893 97.035 -165.7534
178.272434 97.067 -166.0401
179.564270 97.100 -166.3253
180.865467 97.133 -166.6089
182.176092 97.166 -166.8910
183.496216 97.197 -167.1712
184.825905 97.225 -167.4494
186.165229 97.249 -167.7257
187.514259 97.271 -167.9998
188.873065 97.289 -168.2719
190.241717 97.304 -168.5421
191.620287 97.317 -168.8103
193.008847 97.329 -169.0767
194.407468 97.340 -169.3410
195.816225 97.350 -169.6033
197.235190 97.360 -169.8636
198.664438 97.369 -170.1221
200.104042 97.377 -170.3792
201.554078 97.384 -170.6352
203.014622 97.388 -170.8902
204.485750 97.391 -171.1443
205.967538 97.390 -171.3974
207.460064 97.386 -171.6493
208.963405 97.378 -171.9000
210.477640 97.367 -172.1496
212.002848 97.352 -172.3980
213.539108 97.335 -172.6449
215.086500 97.315 -172.8901
216.645105 97.293 -173.1334
218.215005 97.269 -173.3746
219.796281 97.242 -173.6134
221.389015 97.214 -173.8498
222.993292 97.182 -174.0839
224.609193 97.147 -174.3159
226.236804 97.109 -174.5461
227.876209 97.065 -174.7747
229.527494 97.017 -175.0021
231.190745 96.963 -175.2283
232.866048 96.904 -175.4533
234.553491 96.840 -175.6770
236.253163 96.770 -175.8990
237.965150 96.697 -176.1187
239.689544 96.620 -176.3356
241.426433 96.541 -176.5491
243.175909 96.461 -176.7590
244.938062 96.380 -176.9648
246.712984 96.299 -177.1667
248.500768 96.221 -177.3645
250.301507 96.144 -177.5580
252.115295 96.070 -177.7471
253.942226 96.000 -177.9315
255.782396 95.934 -178.1111
257.635901 95.872 -178.2855
259.502837 95.816 -178.4545
261.383301 95.765 -178.6177
263.277392 95.720 -178.7746
265.185209 95.681 -178.9246
267.106850 95.648 -179.0673
269.042417 95.622 -179.2021
270.992009 95.601 -179.3286
272.955729 95.586 -179.4465
274.933678 95.576 -179.5559
276.925961 95.571 -179.6571
278.932681 95.570 -179.7508
280.953942 95.574 -179.8377
282.989850 95.581 -179.9191
285.040511 95.593 -179.9962
287.106032 95.609 179.9294
289.186521 95.630 179.8561
291.282086 95.657 179.7821
293.392836 95.690 179.7057
295.518881 95.730 179.6255
297.660333 95.776 179.5403
299.817302 95.828 179.4493
301.989902 95.885 179.3521
304.178245 95.946 179.2488
306.382446 96.009 179.1398
308.602620 96.072 179.0256
310.838882 96.133 178.9070
313.091348 96.190 178.7850
315.360137 96.242 178.6606
317.645367 96.288 178.5348
319.947156 96.325 178.4083
322.265625 96.354 178.2819
324.600895 96.373 178.1559
326.953086 96.382 178.0308
329.322323 96.381 177.9065
331.708729 96.369 177.7832
334.112427 96.347 177.6608
336.533543 96.313 177.5394
338.972204 96.270 177.4193
341.428536 96.217 177.3006
343.902668 96.155 177.1835
346.394729 96.086 177.0683
348.904848 96.012 176.9551
351.433156 95.933 176.8439
353.979786 95.853 176.7346
356.544869 95.774 176.6273
359.128540 95.698 176.5219
361.730934 95.629 176.4184
364.352185 95.569 176.3168
366.992431 95.521 176.2175
369.651810 95.488 176.1203
372.330459 95.471 176.0255
375.028519 95.471 175.9333
377.746130 95.490 175.8435
380.483434 95.525 175.7563
383.240574 95.576 175.6716
386.017693 95.641 175.5895
388.814937 95.717 175.5098
391.632450 95.802 175.4323
394.470380 95.892 175.3569
397.328875 95.986 175.2831
400.208084 96.080 175.2106
403.108157 96.174 175.1390
406.029245 96.266 175.0679
408.971500 96.355 174.9971
411.935076 96.440 174.9265
414.920127 96.523 174.8562
417.926810 96.603 174.7864
420.955280 96.681 174.7171
424.005695 96.758 174.6487
427.078215 96.835 174.5812
430.173000 96.911 174.5148
433.290211 96.988 174.4495
436.430010 97.065 174.3856
439.592562 97.141 174.3230
442.778031 97.216 174.2618
445.986583 97.289 174.2020
449.218386 97.357 174.1433
452.473607 97.419 174.0856
455.752418 97.475 174.0287
459.054987 97.522 173.9723
462.381489 97.559 173.9161
465.732096 97.586 173.8602
469.106983 97.603 173.8043
472.506325 97.609 173.7486
475.930301 97.606 173.6930
479.379088 97.593 173.6378
482.852867 97.573 173.5830
486.351817 97.545 173.5289
489.876123 97.512 173.4758
493.425968 97.474 173.4239
497.001536 97.431 173.3735
500.603014 97.385 173.3249
504.230589 97.335 173.2782
507.884452 97.282 173.2335
511.564792 97.226 173.1908
515.271802 97.167 173.1504
519.005673 97.106 173.1123
522.766602 97.043 173.0767
526.554785 96.980 173.0439
530.370418 96.919 173.0140
534.213700 96.861 172.9870
538.084833 96.808 172.9628
541.984018 96.762 172.9412
545.911457 96.726 172.9218
549.867357 96.698 172.9041
553.851922 96.681 172.8876
557.865362 96.672 172.8722
561.907884 96.671 172.8575
565.979700 96.677 172.8435
570.081022 96.686 172.8300
574.212064 96.697 172.8170
578.373042 96.708 172.8044
582.564171 96.717 172.7922
586.785671 96.722 172.7802
591.037762 96.722 172.7683
595.320665 96.716 172.7568
599.634604 96.703 172.7457
603.979804 96.683 172.7352
608.356491 96.656 172.7256
612.764893 96.622 172.7172
617.205240 96.583 172.7103
621.677763 96.538 172.7052
626.182696 96.491 172.7021
630.720274 96.442 172.7011
635.290733 96.393 172.7020
639.894312 96.347 172.7045
644.531250 96.305 172.7084
649.201789 96.268 172.7132
653.906173 96.239 172.7185
658.644647 96.217 172.7240
663.417457 96.202 172.7296
668.224854 96.195 172.7352
673.067086 96.193 172.7410
677.944408 96.196 172.7470
682.857073 96.202 172.7537
687.805336 96.210 172.7613
692.789457 96.217 172.7699
697.809695 96.223 172.7794
702.866312 96.226 172.7893
707.959571 96.226 172.7991
713.089738 96.222 172.8080
718.257080 96.214 172.8157
723.461867 96.201 172.8214
728.704370 96.185 172.8250
733.984862 96.165 172.8261
739.303619 96.143 172.8247
744.660918 96.118 172.8208
750.057038 96.092 172.8148
755.492260 96.064 172.8072
760.966869 96.036 172.7984
766.481148 96.006 172.7891
772.035387 95.976 172.7799
777.629873 95.944 172.7710
783.264900 95.909 172.7627
788.940760 95.871 172.7551
794.657750 95.830 172.7477
800.416168 95.784 172.7399
806.216313 95.734 172.7310
812.058489 95.677 172.7200
817.943000 95.615 172.7062
823.870152 95.548 172.6887
829.840255 95.475 172.6663
835.853619 95.397 172.6378
841.910559 95.316 172.6020
848.011390 95.232 172.5575
854.156430 95.146 172.5028
860.346000 95.059 172.4366
866.580422 94.972 172.3579
872.860020 94.886 172.2658
879.185124 94.802 172.1600
885.556062 94.721 172.0404
891.973166 94.643 171.9074
898.436771 94.569 171.7613
904.947215 94.501 171.6030
911.504835 94.437 171.4335
918.109975 94.379 171.2543
924.762978 94.328 171.0673
931.464192 94.282 170.8756
938.213966 94.241 170.6829
945.012651 94.206 170.4941
951.860602 94.175 170.3155
958.758176 94.148 170.1542
965.705733 94.124 170.0186
972.703635 94.104 169.9180
979.752246 94.087 169.8618
986.851935 94.074 169.8586
994.003071 94.066 169.9143
1001.206027 94.066 170.0309
1008.461179 94.076 170.2045
1015.768904 94.099 170.4254
1023.129584 94.136 170.6788
1030.543603 94.188 170.9471
1038.011347 94.257 171.2125
1045.533205 94.340 171.4594
1053.109569 94.438 171.6760
1060.740836 94.548 171.8551
1068.427401 94.668 171.9940
1076.169666 94.796 172.0930
1083.968035 94.929 172.1553
1091.822915 95.065 172.1853
1099.734713 95.202 172.1879
1107.703844 95.337 172.1680
1115.730723 95.470 172.1299
1123.815768 95.597 172.0768
1131.959400 95.719 172.0107
1140.162045 95.834 171.9332
1148.424129 95.941 171.8445
1156.746083 96.042 171.7451
1165.128342 96.137 171.6349
1173.571343 96.226 171.5139
1182.075524 96.310 171.3824
1190.641331 96.391 171.2407
1199.269209 96.469 171.0894
1207.959608 96.546 170.9286
1216.712981 96.622 170.7589
1225.529785 96.697 170.5804
1234.410479 96.771 170.3931
1243.355526 96.843 170.1972
1252.365393 96.914 169.9932
1261.440549 96.981 169.7822
1270.581467 97.044 169.5654
1279.788624 97.103 169.3446
1289.062500 97.156 169.1214
1298.403578 97.204 168.8976
1307.812346 97.246 168.6749
1317.289293 97.283 168.4545
1326.834914 97.315 168.2372
1336.449707 97.343 168.0239
1346.134173 97.366 167.8157
1355.888816 97.385 167.6136
1365.714145 97.401 167.4185
1375.610673 97.413 167.2308
1385.578915 97.423 167.0504
1395.619391 97.430 166.8763
1405.732624 97.434 166.7076
1415.919142 97.436 166.5426
1426.179476 97.435 166.3801
1436.514160 97.434 166.2188
1446.923734 97.431 166.0578
1457.408740 97.427 165.8965
1467.969724 97.424 165.7355
1478.607238 97.420 165.5756
1489.321836 97.418 165.4185
1500.114076 97.416 165.2664
1510.984521 97.416 165.1216
1521.933737 97.418 164.9867
1532.962297 97.421 164.8634
1544.070773 97.427 164.7530
1555.259747 97.435 164.6556
1566.529800 97.444 164.5708
1577.881521 97.455 164.4975
1589.315501 97.467 164.4341
1600.832336 97.480 164.3795
1612.432627 97.493 164.3325
1624.116978 97.505 164.2926
1635.886000 97.517 164.2598
1647.740304 97.528 164.2346
1659.680509 97.538 164.2177
1671.707238 97.548 164.2104
1683.821118 97.558 164.2136
1696.022780 97.569 164.2281
1708.312860 97.580 164.2536
1720.692000 97.593 164.2896
1733.160843 97.607 164.3350
1745.720041 97.623 164.3890
1758.370248 97.641 164.4508
1771.112124 97.659 164.5199
1783.946332 97.679 164.5957
1796.873543 97.699 164.6776
1809.894429 97.720 164.7645
1823.009670 97.741 164.8546
1836.219950 97.761 164.9454
1849.525956 97.781 165.0345
1862.928384 97.801 165.1194
1876.427931 97.819 165.1979
1890.025301 97.836 165.2693
1903.721204 97.853 165.3338
1917.516352 97.867 165.3932
1931.411466 97.879 165.4500
1945.407270 97.889 165.5076
1959.504493 97.895 165.5697
1973.703870 97.899 165.6397
1988.006142 97.898 165.7201
2002.412054 97.893 165.8119
2016.922357 97.883 165.9141
2031.537808 97.869 166.0239
2046.259169 97.848 166.1381
2061.087206 97.822 166.2531
2076.022694 97.789 166.3662
2091.066410 97.749 166.4761
2106.219139 97.701 166.5825
2121.481671 97.648 166.6866
2136.854802 97.588 166.7905
2152.339333 97.524 166.8965
2167.936071 97.456 167.0069
2183.645829 97.387 167.1227
2199.469427 97.318 167.2434
2215.407689 97.251 167.3674
2231.461446 97.186 167.4920
2247.631536 97.126 167.6144
2263.918800 97.070 167.7329
2280.324089 97.018 167.8463
2296.848258 96.971 167.9537
2313.492167 96.929 168.0544
2330.256685 96.891 168.1466
2347.142685 96.856 168.2289
2364.151049 96.825 168.3002
2381.282662 96.796 168.3606
2398.538418 96.768 168.4113
2415.919216 96.742 168.4545
2433.425962 96.717 168.4928
2451.059570 96.693 168.5287
2468.820958 96.670 168.5643
2486.711052 96.650 168.6013
2504.730786 96.631 168.6406
2522.881098 96.616 168.6824
2541.162934 96.604 168.7266
2559.577248 96.597 168.7733
2578.125000 96.595 168.8229
2596.807157 96.599 168.8762
2615.624692 96.611 168.9335
2634.578586 96.632 168.9953
2653.669829 96.662 169.0616
2672.899414 96.701 169.1324
2692.268345 96.751 169.2080
2711.777632 96.812 169.2888
2731.428290 96.882 169.3758
2751.221345 96.962 169.4699
2771.157829 97.050 169.5724
2791.238781 97.144 169.6840
2811.465248 97.245 169.8052
2831.838284 97.349 169.9360
2852.358952 97.455 170.0763
2873.028321 97.562 170.2252
2893.847468 97.668 170.3807
2914.817480 97.772 170.5399
2935.939449 97.872 170.6979
2957.214476 97.968 170.8488
2978.643672 98.059 170.9863
3000.228152 98.143 171.1048
3021.969041 98.220 171.2000
3043.867475 98.288 171.2700
3065.924593 98.348 171.3148
3088.141547 98.400 171.3360
3110.519493 98.443 171.3361
3133.059600 98.478 171.3177
3155.763041 98.506 171.2834
3178.631001 98.528 171.2353
3201.664672 98.545 171.1749
3224.865254 98.557 171.1030
3248.233957 98.566 171.0198
3271.771999 98.572 170.9245
3295.480608 98.576 170.8167
3319.361019 98.577 170.6961
3343.414477 98.575 170.5632
3367.642236 98.572 170.4194
3392.045560 98.566 170.2671
3416.625721 98.557 170.1092
3441.383999 98.547 169.9492
3466.321686 98.534 169.7910
3491.440082 98.521 169.6385
