* Measurement data measured by REW V5.31.3
* Source: EXCL: Headset (USB-C to 3.5mm Headphone Jack Adapter), MICROPHONE (Master Volume), 0, volume: 0.260
* Format: 256k Log Swept Sine, 1 sweep at -12.0 dBFS with no timing reference
* Dated: Feb 9, 2025 10:03:54 PM
* REW Settings:
*  C-weighting compensation: Off
*  Target level: 75.0 dB
* Note: ; 
* Measurement: AKG K701 R2
* Smoothing: 1/6 octave
* Frequency Step: 96 ppo
* Start Frequency: 20.0 Hz
*
* Freq(Hz) SPL(dB) Phase(degrees)
20.141602 81.028 -40.2794
20.287556 81.017 -40.4761
20.434568 81.001 -40.7383
20.582645 80.979 -41.0561
20.731796 80.953 -41.4191
20.882027 80.920 -41.8173
21.033346 80.883 -42.2418
21.185763 80.841 -42.6858
21.339284 80.795 -43.1442
21.493917 80.748 -43.6139
21.649671 80.700 -44.0935
21.806553 80.653 -44.5825
21.964572 80.608 -45.0812
22.123737 80.566 -45.5902
22.284054 80.529 -46.1097
22.445534 80.495 -46.6400
22.608183 80.467 -47.1806
22.772012 80.444 -47.7310
22.937027 80.427 -48.2906
23.103238 80.416 -48.8587
23.270654 80.412 -49.4353
23.439282 80.416 -50.0206
23.609133 80.428 -50.6153
23.780215 80.449 -51.2208
23.952536 80.480 -51.8387
24.126106 80.522 -52.4704
24.300934 80.574 -53.1175
24.477028 80.636 -53.7807
24.654399 80.708 -54.4599
24.833055 80.789 -55.1540
25.013005 80.876 -55.8608
25.194260 80.967 -56.5769
25.376828 81.062 -57.2978
25.560719 81.157 -58.0183
25.745942 81.252 -58.7322
25.932508 81.343 -59.4333
26.120426 81.430 -60.1152
26.309705 81.512 -60.7720
26.500356 81.589 -61.3986
26.692388 81.659 -61.9908
26.885812 81.724 -62.5464
27.080638 81.783 -63.0650
27.276876 81.839 -63.5486
27.474535 81.891 -64.0012
27.673627 81.943 -64.4292
27.874161 81.996 -64.8403
28.076149 82.051 -65.2433
28.279600 82.111 -65.6470
28.484526 82.179 -66.0591
28.690937 82.255 -66.4855
28.898843 82.341 -66.9297
29.108256 82.438 -67.3925
29.319186 82.548 -67.8719
29.531645 82.669 -68.3641
29.745644 82.803 -68.8641
29.961193 82.946 -69.3666
30.178304 83.097 -69.8671
30.396989 83.254 -70.3626
30.617258 83.413 -70.8523
30.839123 83.569 -71.3372
31.062596 83.718 -71.8203
31.287688 83.855 -72.3057
31.514412 83.977 -72.7978
31.742778 84.078 -73.3005
31.972800 84.155 -73.8169
32.204488 84.206 -74.3482
32.437855 84.229 -74.8945
32.672913 84.222 -75.4542
32.909674 84.188 -76.0246
33.148151 84.126 -76.6028
33.388356 84.041 -77.1853
33.630302 83.935 -77.7691
33.874001 83.812 -78.3515
34.119466 83.676 -78.9305
34.366710 83.533 -79.5046
34.615745 83.387 -80.0727
34.866585 83.241 -80.6339
35.119243 83.099 -81.1874
35.373731 82.964 -81.7322
35.630064 82.838 -82.2675
35.888254 82.724 -82.7928
36.148315 82.624 -83.3081
36.410261 82.540 -83.8148
36.674104 82.473 -84.3157
36.939860 82.426 -84.8149
37.207542 82.400 -85.3177
37.477163 82.396 -85.8298
37.748738 82.414 -86.3563
38.022281 82.456 -86.9006
38.297806 82.521 -87.4638
38.575327 82.609 -88.0441
38.854860 82.717 -88.6371
39.136419 82.846 -89.2365
39.420017 82.994 -89.8345
39.705671 83.159 -90.4238
39.993395 83.341 -90.9978
40.283203 83.539 -91.5518
40.575112 83.750 -92.0833
40.869136 83.974 -92.5918
41.165290 84.208 -93.0783
41.463591 84.451 -93.5449
41.764053 84.699 -93.9941
42.066693 84.951 -94.4280
42.371525 85.204 -94.8489
42.678567 85.455 -95.2587
42.987834 85.702 -95.6601
43.299341 85.943 -96.0565
43.613106 86.177 -96.4518
43.929145 86.401 -96.8496
44.247473 86.613 -97.2524
44.568109 86.812 -97.6607
44.891068 86.996 -98.0728
45.216367 87.165 -98.4850
45.544023 87.317 -98.8931
45.874054 87.452 -99.2935
46.206476 87.570 -99.6843
46.541307 87.672 -100.0658
46.878565 87.757 -100.4410
47.218266 87.825 -100.8143
47.560429 87.878 -101.1912
47.905072 87.916 -101.5773
48.252212 87.940 -101.9768
48.601867 87.952 -102.3916
48.954056 87.953 -102.8208
49.308798 87.945 -103.2600
49.666109 87.930 -103.7027
50.026010 87.910 -104.1413
50.388520 87.886 -104.5687
50.753656 87.862 -104.9804
51.121437 87.839 -105.3746
51.491884 87.819 -105.7532
51.865016 87.803 -106.1212
52.240851 87.793 -106.4856
52.619410 87.788 -106.8541
53.000712 87.787 -107.2329
53.384777 87.788 -107.6243
53.771625 87.790 -108.0253
54.161276 87.791 -108.4286
54.553751 87.789 -108.8239
54.949070 87.783 -109.2015
55.347254 87.774 -109.5542
55.748323 87.763 -109.8787
56.152298 87.748 -110.1749
56.559201 87.733 -110.4448
56.969052 87.716 -110.6910
57.381873 87.698 -110.9171
57.797686 87.679 -111.1279
58.216512 87.660 -111.3305
58.638373 87.641 -111.5341
59.063291 87.622 -111.7493
59.491288 87.603 -111.9864
59.922386 87.583 -112.2529
60.356608 87.563 -112.5518
60.793977 87.542 -112.8813
61.234515 87.520 -113.2356
61.678246 87.499 -113.6068
62.125192 87.478 -113.9869
62.575377 87.460 -114.3691
63.028824 87.443 -114.7481
63.485557 87.431 -115.1202
63.945599 87.421 -115.4821
64.408975 87.417 -115.8316
64.875709 87.416 -116.1673
65.345825 87.419 -116.4889
65.819348 87.425 -116.7972
66.296302 87.435 -117.0944
66.776713 87.448 -117.3840
67.260604 87.463 -117.6704
67.748002 87.480 -117.9580
68.238932 87.500 -118.2510
68.733420 87.522 -118.5523
69.231490 87.547 -118.8634
69.733170 87.575 -119.1847
70.238485 87.605 -119.5154
70.747463 87.638 -119.8542
71.260128 87.674 -120.1997
71.776508 87.712 -120.5506
72.296630 87.752 -120.9059
72.820521 87.792 -121.2645
73.348209 87.832 -121.6259
73.879720 87.872 -121.9897
74.415083 87.912 -122.3554
74.954326 87.950 -122.7231
75.497475 87.987 -123.0928
76.044561 88.023 -123.4648
76.595612 88.057 -123.8389
77.150655 88.089 -124.2152
77.709720 88.118 -124.5935
78.272837 88.145 -124.9732
78.840034 88.169 -125.3540
79.411342 88.190 -125.7350
79.986789 88.207 -126.1156
80.566406 88.221 -126.4953
81.150224 88.230 -126.8734
81.738272 88.237 -127.2495
82.330581 88.240 -127.6228
82.927182 88.242 -127.9926
83.528107 88.244 -128.3586
84.133386 88.247 -128.7209
84.743051 88.255 -129.0803
85.357134 88.269 -129.4378
85.975667 88.294 -129.7945
86.598682 88.333 -130.1513
87.226212 88.389 -130.5088
87.858289 88.465 -130.8670
88.494946 88.563 -131.2257
89.136217 88.686 -131.5845
89.782135 88.832 -131.9427
90.432733 89.001 -132.2998
91.088046 89.190 -132.6550
91.748108 89.395 -133.0079
92.412952 89.613 -133.3580
93.082615 89.836 -133.7050
93.757130 90.061 -134.0488
94.436533 90.281 -134.3890
95.120859 90.492 -134.7251
95.810144 90.691 -135.0568
96.504423 90.873 -135.3841
97.203734 91.039 -135.7071
97.908112 91.187 -136.0262
98.617595 91.317 -136.3420
99.332219 91.430 -136.6550
100.052021 91.529 -136.9660
100.777039 91.616 -137.2753
101.507311 91.691 -137.5830
102.242875 91.758 -137.8887
102.983769 91.817 -138.1917
103.730032 91.871 -138.4911
104.481702 91.920 -138.7859
105.238820 91.963 -139.0757
106.001424 92.001 -139.3608
106.769554 92.031 -139.6422
107.543250 92.053 -139.9214
108.322553 92.064 -140.2003
109.107503 92.065 -140.4804
109.898141 92.053 -140.7621
110.694508 92.028 -141.0449
111.496646 91.991 -141.3277
112.304596 91.941 -141.6095
113.118402 91.881 -141.8895
113.938104 91.812 -142.1677
114.763747 91.735 -142.4443
115.595372 91.654 -142.7199
116.433024 91.570 -142.9954
117.276746 91.485 -143.2721
118.126581 91.402 -143.5513
118.982575 91.320 -143.8347
119.844772 91.243 -144.1239
120.713217 91.168 -144.4202
121.587954 91.096 -144.7243
122.469031 91.027 -145.0364
123.356492 90.959 -145.3559
124.250384 90.891 -145.6819
125.150753 90.820 -146.0128
126.057647 90.746 -146.3473
126.971113 90.667 -146.6842
127.891198 90.580 -147.0226
128.817950 90.486 -147.3626
129.751418 90.384 -147.7040
130.691651 90.274 -148.0469
131.638696 90.157 -148.3908
132.592604 90.034 -148.7350
133.553425 89.909 -149.0782
134.521208 89.783 -149.4191
135.496004 89.661 -149.7560
136.477864 89.545 -150.0873
137.466839 89.439 -150.4117
138.462981 89.348 -150.7279
139.466340 89.272 -151.0355
140.476971 89.215 -151.3346
141.494925 89.176 -151.6258
142.520256 89.156 -151.9102
143.553016 89.151 -152.1888
144.593260 89.160 -152.4628
145.641043 89.178 -152.7333
146.696418 89.202 -153.0010
147.759441 89.229 -153.2665
148.830166 89.254 -153.5299
149.908651 89.275 -153.7910
150.994951 89.290 -154.0494
152.089123 89.298 -154.3046
153.191223 89.300 -154.5560
154.301310 89.296 -154.8037
155.419441 89.287 -155.0482
156.545674 89.276 -155.2906
157.680069 89.263 -155.5320
158.822683 89.250 -155.7735
159.973578 89.239 -156.0161
161.132813 89.231 -156.2601
162.300447 89.225 -156.5059
163.476543 89.224 -156.7535
164.661162 89.226 -157.0034
165.854364 89.232 -157.2563
167.056213 89.242 -157.5135
168.266772 89.257 -157.7766
169.486102 89.275 -158.0472
170.714268 89.298 -158.3272
171.951334 89.326 -158.6179
173.197364 89.357 -158.9206
174.452424 89.393 -159.2365
175.716578 89.433 -159.5665
176.989893 89.474 -159.9113
178.272434 89.517 -160.2712
179.564270 89.559 -160.6458
180.865467 89.599 -161.0338
182.176092 89.634 -161.4330
183.496216 89.663 -161.8396
184.825905 89.685 -162.2486
186.165229 89.697 -162.6534
187.514259 89.701 -163.0461
188.873065 89.697 -163.4185
190.241717 89.685 -163.7625
191.620287 89.667 -164.0715
193.008847 89.646 -164.3414
194.407468 89.622 -164.5712
195.816225 89.599 -164.7632
197.235190 89.577 -164.9223
198.664438 89.556 -165.0555
200.104042 89.538 -165.1704
201.554078 89.520 -165.2741
203.014622 89.504 -165.3722
204.485750 89.486 -165.4683
205.967538 89.466 -165.5637
207.460064 89.444 -165.6578
208.963405 89.417 -165.7476
210.477640 89.387 -165.8288
212.002848 89.352 -165.8957
213.539108 89.313 -165.9424
215.086500 89.270 -165.9627
216.645105 89.224 -165.9512
218.215005 89.176 -165.9032
219.796281 89.127 -165.8151
221.389015 89.078 -165.6849
222.993292 89.029 -165.5126
224.609193 88.982 -165.3007
226.236804 88.936 -165.0543
227.876209 88.894 -164.7813
229.527494 88.855 -164.4922
231.190745 88.820 -164.1991
232.866048 88.790 -163.9151
234.553491 88.763 -163.6529
236.253163 88.740 -163.4235
237.965150 88.721 -163.2357
239.689544 88.705 -163.0954
241.426433 88.691 -163.0055
243.175909 88.679 -162.9661
244.938062 88.668 -162.9754
246.712984 88.657 -163.0296
248.500768 88.648 -163.1240
250.301507 88.639 -163.2532
252.115295 88.630 -163.4117
253.942226 88.623 -163.5941
255.782396 88.616 -163.7954
257.635901 88.612 -164.0109
259.502837 88.609 -164.2366
261.383301 88.608 -164.4692
263.277392 88.611 -164.7059
265.185209 88.616 -164.9445
267.106850 88.625 -165.1832
269.042417 88.637 -165.4207
270.992009 88.653 -165.6557
272.955729 88.671 -165.8876
274.933678 88.692 -166.1160
276.925961 88.714 -166.3406
278.932681 88.738 -166.5615
280.953942 88.764 -166.7787
282.989850 88.790 -166.9923
285.040511 88.818 -167.2022
287.106032 88.849 -167.4084
289.186521 88.882 -167.6109
291.282086 88.919 -167.8094
293.392836 88.961 -168.0040
295.518881 89.007 -168.1948
297.660333 89.059 -168.3818
299.817302 89.116 -168.5652
301.989902 89.177 -168.7449
304.178245 89.241 -168.9208
306.382446 89.307 -169.0928
308.602620 89.373 -169.2610
310.838882 89.436 -169.4253
313.091348 89.495 -169.5855
315.360137 89.550 -169.7417
317.645367 89.597 -169.8936
319.947156 89.637 -170.0410
322.265625 89.668 -170.1841
324.600895 89.690 -170.3228
326.953086 89.702 -170.4572
329.322323 89.703 -170.5875
331.708729 89.694 -170.7138
334.112427 89.675 -170.8362
336.533543 89.645 -170.9549
338.972204 89.605 -171.0700
341.428536 89.556 -171.1817
343.902668 89.499 -171.2900
346.394729 89.435 -171.3950
348.904848 89.365 -171.4967
351.433156 89.292 -171.5950
353.979786 89.217 -171.6898
356.544869 89.144 -171.7810
359.128540 89.074 -171.8685
361.730934 89.012 -171.9527
364.352185 88.959 -172.0339
366.992431 88.919 -172.1127
369.651810 88.893 -172.1899
372.330459 88.885 -172.2660
375.028519 88.894 -172.3417
377.746130 88.921 -172.4177
380.483434 88.966 -172.4942
383.240574 89.026 -172.5717
386.017693 89.100 -172.6501
388.814937 89.186 -172.7297
391.632450 89.279 -172.8103
394.470380 89.378 -172.8921
397.328875 89.480 -172.9750
400.208084 89.582 -173.0591
403.108157 89.683 -173.1446
406.029245 89.782 -173.2313
408.971500 89.876 -173.3191
411.935076 89.967 -173.4078
414.920127 90.054 -173.4968
417.926810 90.138 -173.5857
420.955280 90.220 -173.6737
424.005695 90.299 -173.7602
427.078215 90.377 -173.8445
430.173000 90.455 -173.9258
433.290211 90.532 -174.0035
436.430010 90.610 -174.0768
439.592562 90.686 -174.1454
442.778031 90.761 -174.2087
445.986583 90.832 -174.2666
449.218386 90.900 -174.3191
452.473607 90.962 -174.3662
455.752418 91.017 -174.4082
459.054987 91.063 -174.4451
462.381489 91.099 -174.4772
465.732096 91.126 -174.5047
469.106983 91.142 -174.5277
472.506325 91.148 -174.5464
475.930301 91.144 -174.5606
479.379088 91.131 -174.5700
482.852867 91.109 -174.5739
486.351817 91.081 -174.5718
489.876123 91.048 -174.5630
493.425968 91.010 -174.5474
497.001536 90.969 -174.5250
500.603014 90.925 -174.4967
504.230589 90.879 -174.4639
507.884452 90.832 -174.4286
511.564792 90.783 -174.3933
515.271802 90.734 -174.3612
519.005673 90.684 -174.3354
522.766602 90.635 -174.3192
526.554785 90.586 -174.3154
530.370418 90.540 -174.3262
534.213700 90.498 -174.3526
538.084833 90.460 -174.3945
541.984018 90.428 -174.4505
545.911457 90.403 -174.5185
549.867357 90.386 -174.5952
553.851922 90.375 -174.6776
557.865362 90.371 -174.7625
561.907884 90.373 -174.8469
565.979700 90.378 -174.9283
570.081022 90.385 -175.0049
574.212064 90.392 -175.0751
578.373042 90.397 -175.1380
582.564171 90.399 -175.1930
586.785671 90.396 -175.2399
591.037762 90.388 -175.2789
595.320665 90.372 -175.3104
599.634604 90.350 -175.3351
603.979804 90.319 -175.3538
608.356491 90.282 -175.3672
612.764893 90.238 -175.3758
617.205240 90.187 -175.3800
621.677763 90.131 -175.3795
626.182696 90.070 -175.3735
630.720274 90.007 -175.3605
635.290733 89.943 -175.3383
639.894312 89.879 -175.3044
644.531250 89.819 -175.2558
649.201789 89.763 -175.1901
653.906173 89.713 -175.1052
658.644647 89.672 -175.0004
663.417457 89.639 -174.8760
668.224854 89.614 -174.7345
673.067086 89.598 -174.5796
677.944408 89.590 -174.4163
682.857073 89.587 -174.2502
687.805336 89.588 -174.0862
692.789457 89.591 -173.9282
697.809695 89.594 -173.7782
702.866312 89.595 -173.6366
707.959571 89.593 -173.5021
713.089738 89.587 -173.3733
718.257080 89.577 -173.2484
723.461867 89.562 -173.1266
728.704370 89.543 -173.0080
733.984862 89.521 -172.8930
739.303619 89.496 -172.7825
744.660918 89.469 -172.6770
750.057038 89.440 -172.5770
755.492260 89.410 -172.4822
760.966869 89.378 -172.3922
766.481148 89.346 -172.3064
772.035387 89.312 -172.2242
777.629873 89.276 -172.1450
783.264900 89.238 -172.0685
788.940760 89.195 -171.9943
794.657750 89.148 -171.9221
800.416168 89.096 -171.8514
806.216313 89.037 -171.7815
812.058489 88.971 -171.7115
817.943000 88.897 -171.6403
823.870152 88.816 -171.5668
829.840255 88.728 -171.4895
835.853619 88.633 -171.4072
841.910559 88.533 -171.3184
848.011390 88.428 -171.2220
854.156430 88.320 -171.1170
860.346000 88.210 -171.0029
866.580422 88.099 -170.8791
872.860020 87.989 -170.7458
879.185124 87.882 -170.6033
885.556062 87.778 -170.4521
891.973166 87.679 -170.2931
898.436771 87.587 -170.1273
904.947215 87.502 -169.9563
911.504835 87.426 -169.7817
918.109975 87.359 -169.6051
924.762978 87.302 -169.4281
931.464192 87.255 -169.2515
938.213966 87.219 -169.0759
945.012651 87.193 -168.9011
951.860602 87.176 -168.7265
958.758176 87.168 -168.5513
965.705733 87.167 -168.3740
972.703635 87.173 -168.1928
979.752246 87.184 -168.0057
986.851935 87.201 -167.8105
994.003071 87.222 -167.6055
1001.206027 87.248 -167.3892
1008.461179 87.278 -167.1606
1015.768904 87.313 -166.9196
1023.129584 87.354 -166.6665
1030.543603 87.402 -166.4021
1038.011347 87.457 -166.1278
1045.533205 87.519 -165.8448
1053.109569 87.590 -165.5546
1060.740836 87.669 -165.2582
1068.427401 87.756 -164.9563
1076.169666 87.850 -164.6491
1083.968035 87.950 -164.3359
1091.822915 88.053 -164.0157
1099.734713 88.160 -163.6871
1107.703844 88.267 -163.3487
1115.730723 88.373 -162.9996
1123.815768 88.478 -162.6396
1131.959400 88.579 -162.2695
1140.162045 88.676 -161.8906
1148.424129 88.769 -161.5049
1156.746083 88.858 -161.1147
1165.128342 88.943 -160.7230
1173.571343 89.025 -160.3329
1182.075524 89.106 -159.9477
1190.641331 89.184 -159.5700
1199.269209 89.262 -159.2017
1207.959608 89.340 -158.8432
1216.712981 89.416 -158.4927
1225.529785 89.492 -158.1458
1234.410479 89.565 -157.7962
1243.355526 89.637 -157.4360
1252.365393 89.707 -157.0569
1261.440549 89.774 -156.6516
1270.581467 89.840 -156.2142
1279.788624 89.904 -155.7417
1289.062500 89.968 -155.2336
1298.403578 90.032 -154.6918
1307.812346 90.097 -154.1199
1317.289293 90.164 -153.5233
1326.834914 90.234 -152.9080
1336.449707 90.307 -152.2806
1346.134173 90.383 -151.6479
1355.888816 90.464 -151.0167
1365.714145 90.547 -150.3935
1375.610673 90.634 -149.7833
1385.578915 90.723 -149.1900
1395.619391 90.814 -148.6154
1405.732624 90.907 -148.0600
1415.919142 91.000 -147.5230
1426.179476 91.095 -147.0032
1436.514160 91.191 -146.4992
1446.923734 91.290 -146.0100
1457.408740 91.392 -145.5350
1467.969724 91.498 -145.0739
1478.607238 91.607 -144.6260
1489.321836 91.722 -144.1906
1500.114076 91.842 -143.7669
1510.984521 91.968 -143.3542
1521.933737 92.099 -142.9525
1532.962297 92.236 -142.5619
1544.070773 92.378 -142.1834
1555.259747 92.526 -141.8184
1566.529800 92.678 -141.4683
1577.881521 92.834 -141.1348
1589.315501 92.993 -140.8195
1600.832336 93.155 -140.5242
1612.432627 93.319 -140.2511
1624.116978 93.485 -140.0034
1635.886000 93.653 -139.7845
1647.740304 93.821 -139.5983
1659.680509 93.990 -139.4478
1671.707238 94.159 -139.3345
1683.821118 94.327 -139.2580
1696.022780 94.493 -139.2154
1708.312860 94.658 -139.2018
1720.692000 94.820 -139.2109
1733.160843 94.980 -139.2358
1745.720041 95.139 -139.2696
1758.370248 95.296 -139.3062
1771.112124 95.452 -139.3406
1783.946332 95.609 -139.3698
1796.873543 95.765 -139.3933
1809.894429 95.923 -139.4136
1823.009670 96.082 -139.4352
1836.219950 96.243 -139.4651
1849.525956 96.407 -139.5112
1862.928384 96.572 -139.5818
1876.427931 96.738 -139.6851
1890.025301 96.906 -139.8283
1903.721204 97.072 -140.0163
1917.516352 97.238 -140.2510
1931.411466 97.399 -140.5307
1945.407270 97.557 -140.8508
1959.504493 97.709 -141.2050
1973.703870 97.855 -141.5868
1988.006142 97.994 -141.9911
2002.412054 98.127 -142.4152
2016.922357 98.253 -142.8598
2031.537808 98.372 -143.3280
2046.259169 98.484 -143.8248
2061.087206 98.588 -144.3558
2076.022694 98.684 -144.9264
2091.066410 98.772 -145.5413
2106.219139 98.850 -146.2039
2121.481671 98.919 -146.9167
2136.854802 98.978 -147.6800
2152.339333 99.028 -148.4915
2167.936071 99.067 -149.3464
2183.645829 99.097 -150.2365
2199.469427 99.116 -151.1520
2215.407689 99.127 -152.0821
2231.461446 99.130 -153.0163
2247.631536 99.126 -153.9464
2263.918800 99.117 -154.8665
2280.324089 99.104 -155.7735
2296.848258 99.088 -156.6669
2313.492167 99.070 -157.5478
2330.256685 99.050 -158.4178
2347.142685 99.028 -159.2783
2364.151049 99.004 -160.1301
2381.282662 98.977 -160.9731
2398.538418 98.948 -161.8072
2415.919216 98.915 -162.6328
2433.425962 98.880 -163.4502
2451.059570 98.841 -164.2590
2468.820958 98.798 -165.0570
2486.711052 98.750 -165.8397
2504.730786 98.699 -166.6006
2522.881098 98.644 -167.3321
2541.162934 98.586 -168.0266
2559.577248 98.527 -168.6777
2578.125000 98.470 -169.2814
2596.807157 98.416 -169.8369
2615.624692 98.368 -170.3462
2634.578586 98.328 -170.8139
2653.669829 98.297 -171.2460
2672.899414 98.277 -171.6486
2692.268345 98.268 -172.0263
2711.777632 98.269 -172.3819
2731.428290 98.279 -172.7151
2751.221345 98.298 -173.0230
2771.157829 98.325 -173.3015
2791.238781 98.359 -173.5466
2811.465248 98.399 -173.7562
2831.838284 98.444 -173.9309
2852.358952 98.493 -174.0745
2873.028321 98.544 -174.1929
2893.847468 98.596 -174.2935
2914.817480 98.647 -174.3832
2935.939449 98.694 -174.4678
2957.214476 98.736 -174.5511
2978.643672 98.770 -174.6344
3000.228152 98.796 -174.7164
3021.969041 98.812 -174.7938
3043.867475 98.818 -174.8626
3065.924593 98.816 -174.9191
3088.141547 98.805 -174.9609
3110.519493 98.787 -174.9877
3133.059600 98.763 -175.0006
3155.763041 98.735 -175.0022
3178.631001 98.703 -174.9950
3201.664672 98.668 -174.9809
