* Measurement data measured by REW V5.31.3
* Source: EXCL: Headset (USB-C to 3.5mm Headphone Jack Adapter), MICROPHONE (Master Volume), 0, volume: 0.260
* Format: 256k Log Swept Sine, 1 sweep at -12.0 dBFS with no timing reference
* Dated: Feb 9, 2025 10:05:22 PM
* REW Settings:
*  C-weighting compensation: Off
*  Target level: 75.0 dB
* Note: ; 
* Measurement: AKG K701 R6
* Smoothing: 1/6 octave
* Frequency Step: 96 ppo
* Start Frequency: 20.0 Hz
*
* Freq(Hz) SPL(dB) Phase(degrees)
20.141602 80.661 -36.3472
20.287556 80.670 -36.6578
20.434568 80.678 -37.0628
20.582645 80.679 -37.5364
20.731796 80.669 -38.0505
20.882027 80.644 -38.5771
21.033346 80.600 -39.0907
21.185763 80.537 -39.5704
21.339284 80.455 -40.0017
21.493917 80.358 -40.3778
21.649671 80.250 -40.7007
21.806553 80.135 -40.9816
21.964572 80.020 -41.2397
22.123737 79.912 -41.5010
22.284054 79.815 -41.7950
22.445534 79.735 -42.1517
22.608183 79.675 -42.5975
22.772012 79.636 -43.1521
22.937027 79.617 -43.8262
23.103238 79.619 -44.6204
23.270654 79.639 -45.5257
23.439282 79.673 -46.5248
23.609133 79.720 -47.5945
23.780215 79.776 -48.7083
23.952536 79.841 -49.8391
24.126106 79.913 -50.9618
24.300934 79.991 -52.0549
24.477028 80.073 -53.1023
24.654399 80.160 -54.0935
24.833055 80.249 -55.0237
25.013005 80.341 -55.8930
25.194260 80.432 -56.7054
25.376828 80.523 -57.4674
25.560719 80.610 -58.1865
25.745942 80.692 -58.8700
25.932508 80.769 -59.5241
26.120426 80.839 -60.1538
26.309705 80.902 -60.7625
26.500356 80.959 -61.3528
26.692388 81.011 -61.9271
26.885812 81.059 -62.4876
27.080638 81.106 -63.0375
27.276876 81.153 -63.5800
27.474535 81.201 -64.1187
27.673627 81.253 -64.6564
27.874161 81.310 -65.1942
28.076149 81.373 -65.7309
28.279600 81.444 -66.2627
28.484526 81.523 -66.7833
28.690937 81.611 -67.2846
28.898843 81.711 -67.7580
29.108256 81.824 -68.1962
29.319186 81.950 -68.5947
29.531645 82.090 -68.9533
29.745644 82.243 -69.2772
29.961193 82.409 -69.5768
30.178304 82.585 -69.8674
30.396989 82.767 -70.1678
30.617258 82.949 -70.4979
30.839123 83.129 -70.8766
31.062596 83.298 -71.3195
31.287688 83.454 -71.8364
31.514412 83.591 -72.4304
31.742778 83.704 -73.0969
31.972800 83.792 -73.8232
32.204488 83.851 -74.5900
32.437855 83.882 -75.3722
32.672913 83.883 -76.1419
32.909674 83.856 -76.8714
33.148151 83.803 -77.5359
33.388356 83.727 -78.1173
33.630302 83.631 -78.6064
33.874001 83.519 -79.0048
34.119466 83.396 -79.3253
34.366710 83.264 -79.5897
34.615745 83.129 -79.8267
34.866585 82.992 -80.0672
35.119243 82.857 -80.3406
35.373731 82.726 -80.6710
35.630064 82.599 -81.0740
35.888254 82.481 -81.5556
36.148315 82.374 -82.1126
36.410261 82.281 -82.7337
36.674104 82.205 -83.4013
36.939860 82.150 -84.0948
37.207542 82.118 -84.7929
37.477163 82.112 -85.4759
37.748738 82.131 -86.1281
38.022281 82.174 -86.7385
38.297806 82.239 -87.3021
38.575327 82.324 -87.8200
38.854860 82.427 -88.2987
39.136419 82.547 -88.7497
39.420017 82.680 -89.1879
39.705671 82.829 -89.6301
39.993395 82.992 -90.0920
40.283203 83.170 -90.5868
40.575112 83.364 -91.1225
40.869136 83.573 -91.7010
41.165290 83.799 -92.3183
41.463591 84.038 -92.9652
41.764053 84.289 -93.6291
42.066693 84.549 -94.2966
42.371525 84.813 -94.9547
42.678567 85.077 -95.5918
42.987834 85.335 -96.1987
43.299341 85.583 -96.7677
43.613106 85.818 -97.2936
43.929145 86.037 -97.7730
44.247473 86.239 -98.2059
44.568109 86.424 -98.5957
44.891068 86.592 -98.9492
45.216367 86.744 -99.2762
45.544023 86.879 -99.5869
45.874054 86.997 -99.8907
46.206476 87.099 -100.1943
46.541307 87.184 -100.5010
46.878565 87.252 -100.8115
47.218266 87.303 -101.1251
47.560429 87.339 -101.4403
47.905072 87.361 -101.7562
48.252212 87.370 -102.0724
48.601867 87.370 -102.3888
48.954056 87.362 -102.7054
49.308798 87.349 -103.0225
49.666109 87.332 -103.3410
50.026010 87.313 -103.6621
50.388520 87.293 -103.9877
50.753656 87.272 -104.3196
51.121437 87.252 -104.6595
51.491884 87.234 -105.0090
51.865016 87.217 -105.3686
52.240851 87.204 -105.7380
52.619410 87.194 -106.1151
53.000712 87.190 -106.4958
53.384777 87.191 -106.8748
53.771625 87.197 -107.2463
54.161276 87.207 -107.6058
54.553751 87.220 -107.9506
54.949070 87.234 -108.2802
55.347254 87.249 -108.5951
55.748323 87.264 -108.8956
56.152298 87.276 -109.1808
56.559201 87.286 -109.4483
56.969052 87.294 -109.6951
57.381873 87.300 -109.9191
57.797686 87.302 -110.1206
58.216512 87.301 -110.3044
58.638373 87.296 -110.4795
59.063291 87.288 -110.6593
59.491288 87.275 -110.8582
59.922386 87.259 -111.0893
60.356608 87.239 -111.3607
60.793977 87.217 -111.6742
61.234515 87.194 -112.0248
61.678246 87.171 -112.4032
62.125192 87.149 -112.7976
62.575377 87.130 -113.1971
63.028824 87.115 -113.5932
63.485557 87.104 -113.9810
63.945599 87.097 -114.3589
64.408975 87.094 -114.7283
64.875709 87.096 -115.0918
65.345825 87.101 -115.4530
65.819348 87.110 -115.8148
66.296302 87.121 -116.1790
66.776713 87.136 -116.5466
67.260604 87.153 -116.9178
67.748002 87.172 -117.2926
68.238932 87.193 -117.6710
68.733420 87.216 -118.0530
69.231490 87.241 -118.4389
69.733170 87.266 -118.8290
70.238485 87.293 -119.2237
70.747463 87.320 -119.6233
71.260128 87.348 -120.0278
71.776508 87.376 -120.4367
72.296630 87.405 -120.8488
72.820521 87.435 -121.2623
73.348209 87.466 -121.6753
73.879720 87.498 -122.0858
74.415083 87.531 -122.4924
74.954326 87.565 -122.8944
75.497475 87.599 -123.2916
76.044561 87.632 -123.6844
76.595612 87.666 -124.0733
77.150655 87.698 -124.4587
77.709720 87.728 -124.8408
78.272837 87.756 -125.2198
78.840034 87.781 -125.5962
79.411342 87.802 -125.9706
79.986789 87.819 -126.3439
80.566406 87.833 -126.7171
81.150224 87.843 -127.0907
81.738272 87.849 -127.4648
82.330581 87.853 -127.8389
82.927182 87.855 -128.2123
83.528107 87.857 -128.5836
84.133386 87.859 -128.9518
84.743051 87.864 -129.3160
85.357134 87.875 -129.6754
85.975667 87.896 -130.0296
86.598682 87.929 -130.3786
87.226212 87.979 -130.7224
87.858289 88.048 -131.0614
88.494946 88.140 -131.3958
89.136217 88.257 -131.7263
89.782135 88.398 -132.0533
90.432733 88.563 -132.3772
91.088046 88.750 -132.6984
91.748108 88.953 -133.0172
92.412952 89.168 -133.3339
93.082615 89.390 -133.6491
93.757130 89.612 -133.9635
94.436533 89.830 -134.2774
95.120859 90.038 -134.5914
95.810144 90.234 -134.9054
96.504423 90.414 -135.2188
97.203734 90.577 -135.5309
97.908112 90.723 -135.8407
98.617595 90.852 -136.1476
99.332219 90.966 -136.4515
100.052021 91.065 -136.7525
100.777039 91.153 -137.0513
101.507311 91.232 -137.3479
102.242875 91.303 -137.6422
102.983769 91.369 -137.9342
103.730032 91.429 -138.2237
104.481702 91.485 -138.5112
105.238820 91.536 -138.7976
106.001424 91.581 -139.0842
106.769554 91.620 -139.3724
107.543250 91.650 -139.6636
108.322553 91.670 -139.9584
109.107503 91.678 -140.2572
109.898141 91.672 -140.5596
110.694508 91.653 -140.8651
111.496646 91.619 -141.1731
112.304596 91.572 -141.4832
113.118402 91.514 -141.7955
113.938104 91.447 -142.1104
114.763747 91.372 -142.4285
115.595372 91.293 -142.7508
116.433024 91.211 -143.0781
117.276746 91.127 -143.4113
118.126581 91.045 -143.7513
118.982575 90.964 -144.0981
119.844772 90.885 -144.4514
120.713217 90.808 -144.8103
121.587954 90.733 -145.1738
122.469031 90.659 -145.5404
123.356492 90.584 -145.9086
124.250384 90.508 -146.2767
125.150753 90.429 -146.6426
126.057647 90.345 -147.0040
126.971113 90.254 -147.3588
127.891198 90.157 -147.7054
128.817950 90.052 -148.0425
129.751418 89.939 -148.3698
130.691651 89.818 -148.6875
131.638696 89.691 -148.9958
132.592604 89.560 -149.2953
133.553425 89.427 -149.5866
134.521208 89.295 -149.8701
135.496004 89.167 -150.1466
136.477864 89.048 -150.4167
137.466839 88.940 -150.6815
138.462981 88.847 -150.9419
139.466340 88.772 -151.1987
140.476971 88.714 -151.4524
141.494925 88.677 -151.7037
142.520256 88.657 -151.9528
143.553016 88.655 -152.2000
144.593260 88.666 -152.4451
145.641043 88.687 -152.6879
146.696418 88.714 -152.9280
147.759441 88.744 -153.1651
148.830166 88.772 -153.3996
149.908651 88.796 -153.6318
150.994951 88.815 -153.8626
152.089123 88.827 -154.0931
153.191223 88.832 -154.3246
154.301310 88.831 -154.5585
155.419441 88.825 -154.7957
156.545674 88.817 -155.0369
157.680069 88.807 -155.2823
158.822683 88.797 -155.5314
159.973578 88.789 -155.7835
161.132813 88.784 -156.0376
162.300447 88.782 -156.2931
163.476543 88.783 -156.5496
164.661162 88.788 -156.8074
165.854364 88.797 -157.0676
167.056213 88.810 -157.3317
168.266772 88.826 -157.6017
169.486102 88.846 -157.8795
170.714268 88.871 -158.1674
171.951334 88.900 -158.4676
173.197364 88.933 -158.7822
174.452424 88.970 -159.1128
175.716578 89.010 -159.4609
176.989893 89.052 -159.8275
178.272434 89.095 -160.2127
179.564270 89.136 -160.6162
180.865467 89.175 -161.0364
182.176092 89.208 -161.4707
183.496216 89.235 -161.9147
184.825905 89.254 -162.3626
186.165229 89.263 -162.8066
187.514259 89.263 -163.2376
188.873065 89.254 -163.6458
190.241717 89.238 -164.0218
191.620287 89.215 -164.3577
193.008847 89.187 -164.6485
194.407468 89.159 -164.8926
195.816225 89.130 -165.0924
197.235190 89.103 -165.2529
198.664438 89.078 -165.3812
200.104042 89.056 -165.4849
201.554078 89.037 -165.5712
203.014622 89.019 -165.6463
204.485750 89.000 -165.7149
205.967538 88.980 -165.7799
207.460064 88.957 -165.8423
208.963405 88.929 -165.9007
210.477640 88.897 -165.9516
212.002848 88.860 -165.9899
213.539108 88.817 -166.0087
215.086500 88.771 -166.0008
216.645105 88.721 -165.9588
218.215005 88.669 -165.8760
219.796281 88.616 -165.7474
221.389015 88.563 -165.5701
222.993292 88.512 -165.3442
224.609193 88.465 -165.0730
226.236804 88.421 -164.7638
227.876209 88.383 -164.4270
229.527494 88.350 -164.0761
231.190745 88.322 -163.7264
232.866048 88.300 -163.3938
234.553491 88.283 -163.0927
236.253163 88.271 -162.8352
237.965150 88.261 -162.6299
239.689544 88.255 -162.4815
241.426433 88.249 -162.3910
243.175909 88.245 -162.3566
244.938062 88.240 -162.3744
246.712984 88.236 -162.4391
248.500768 88.231 -162.5448
250.301507 88.225 -162.6852
252.115295 88.219 -162.8540
253.942226 88.213 -163.0457
255.782396 88.207 -163.2549
257.635901 88.202 -163.4774
259.502837 88.199 -163.7099
261.383301 88.199 -163.9496
263.277392 88.201 -164.1942
265.185209 88.206 -164.4418
267.106850 88.215 -164.6907
269.042417 88.227 -164.9391
270.992009 88.243 -165.1859
272.955729 88.262 -165.4299
274.933678 88.283 -165.6706
276.925961 88.307 -165.9077
278.932681 88.332 -166.1412
280.953942 88.358 -166.3715
282.989850 88.385 -166.5991
285.040511 88.414 -166.8244
287.106032 88.444 -167.0477
289.186521 88.476 -167.2687
291.282086 88.512 -167.4871
293.392836 88.552 -167.7022
295.518881 88.596 -167.9131
297.660333 88.646 -168.1190
299.817302 88.700 -168.3194
301.989902 88.759 -168.5139
304.178245 88.820 -168.7024
306.382446 88.884 -168.8848
308.602620 88.947 -169.0611
310.838882 89.008 -169.2314
313.091348 89.066 -169.3959
315.360137 89.119 -169.5547
317.645367 89.165 -169.7078
319.947156 89.204 -169.8555
322.265625 89.234 -169.9980
324.600895 89.255 -170.1356
326.953086 89.267 -170.2686
329.322323 89.268 -170.3973
331.708729 89.259 -170.5222
334.112427 89.240 -170.6438
336.533543 89.210 -170.7626
338.972204 89.171 -170.8788
341.428536 89.123 -170.9927
343.902668 89.066 -171.1043
346.394729 89.002 -171.2136
348.904848 88.933 -171.3207
351.433156 88.859 -171.4256
353.979786 88.784 -171.5284
356.544869 88.710 -171.6294
359.128540 88.639 -171.7287
361.730934 88.575 -171.8264
364.352185 88.519 -171.9223
366.992431 88.476 -172.0163
369.651810 88.447 -172.1081
372.330459 88.434 -172.1979
375.028519 88.439 -172.2856
377.746130 88.461 -172.3713
380.483434 88.501 -172.4554
383.240574 88.556 -172.5378
386.017693 88.624 -172.6185
388.814937 88.703 -172.6974
391.632450 88.790 -172.7743
394.470380 88.883 -172.8486
397.328875 88.978 -172.9200
400.208084 89.074 -172.9879
403.108157 89.168 -173.0517
406.029245 89.260 -173.1109
408.971500 89.349 -173.1652
411.935076 89.435 -173.2144
414.920127 89.518 -173.2583
417.926810 89.598 -173.2970
420.955280 89.676 -173.3305
424.005695 89.753 -173.3589
427.078215 89.830 -173.3825
430.173000 89.907 -173.4014
433.290211 89.985 -173.4159
436.430010 90.063 -173.4263
439.592562 90.141 -173.4327
442.778031 90.218 -173.4353
445.986583 90.292 -173.4343
449.218386 90.362 -173.4294
452.473607 90.427 -173.4207
455.752418 90.485 -173.4079
459.054987 90.535 -173.3911
462.381489 90.576 -173.3706
465.732096 90.607 -173.3470
469.106983 90.629 -173.3208
472.506325 90.641 -173.2928
475.930301 90.645 -173.2639
479.379088 90.640 -173.2348
482.852867 90.628 -173.2064
486.351817 90.610 -173.1792
489.876123 90.588 -173.1541
493.425968 90.562 -173.1319
497.001536 90.532 -173.1135
500.603014 90.500 -173.1000
504.230589 90.466 -173.0927
507.884452 90.429 -173.0926
511.564792 90.390 -173.1012
515.271802 90.348 -173.1194
519.005673 90.304 -173.1484
522.766602 90.259 -173.1890
526.554785 90.213 -173.2415
530.370418 90.168 -173.3058
534.213700 90.125 -173.3811
538.084833 90.086 -173.4659
541.984018 90.051 -173.5579
545.911457 90.023 -173.6544
549.867357 90.001 -173.7526
553.851922 89.985 -173.8494
557.865362 89.976 -173.9419
561.907884 89.972 -174.0274
565.979700 89.971 -174.1034
570.081022 89.972 -174.1676
574.212064 89.973 -174.2180
578.373042 89.972 -174.2527
582.564171 89.968 -174.2698
586.785671 89.959 -174.2679
591.037762 89.946 -174.2462
595.320665 89.927 -174.2046
599.634604 89.903 -174.1443
603.979804 89.874 -174.0676
608.356491 89.841 -173.9784
612.764893 89.804 -173.8813
617.205240 89.765 -173.7817
621.677763 89.724 -173.6848
626.182696 89.682 -173.5952
630.720274 89.640 -173.5161
635.290733 89.600 -173.4497
639.894312 89.563 -173.3966
644.531250 89.530 -173.3568
649.201789 89.503 -173.3293
653.906173 89.481 -173.3129
658.644647 89.465 -173.3059
663.417457 89.456 -173.3068
668.224854 89.452 -173.3138
673.067086 89.452 -173.3255
677.944408 89.455 -173.3406
682.857073 89.459 -173.3580
687.805336 89.463 -173.3767
692.789457 89.465 -173.3958
697.809695 89.463 -173.4141
702.866312 89.458 -173.4298
707.959571 89.446 -173.4412
713.089738 89.429 -173.4463
718.257080 89.406 -173.4435
723.461867 89.377 -173.4312
728.704370 89.342 -173.4081
733.984862 89.303 -173.3736
739.303619 89.261 -173.3272
744.660918 89.216 -173.2691
750.057038 89.169 -173.2000
755.492260 89.121 -173.1209
760.966869 89.073 -173.0332
766.481148 89.024 -172.9382
772.035387 88.974 -172.8370
777.629873 88.923 -172.7303
783.264900 88.870 -172.6182
788.940760 88.814 -172.5005
794.657750 88.754 -172.3765
800.416168 88.689 -172.2451
806.216313 88.618 -172.1056
812.058489 88.542 -171.9573
817.943000 88.460 -171.8003
823.870152 88.372 -171.6351
829.840255 88.279 -171.4625
835.853619 88.181 -171.2839
841.910559 88.080 -171.1010
848.011390 87.977 -170.9156
854.156430 87.872 -170.7292
860.346000 87.766 -170.5434
866.580422 87.662 -170.3590
872.860020 87.559 -170.1770
879.185124 87.459 -169.9976
885.556062 87.363 -169.8208
891.973166 87.272 -169.6465
898.436771 87.186 -169.4741
904.947215 87.108 -169.3032
911.504835 87.037 -169.1333
918.109975 86.975 -168.9639
924.762978 86.921 -168.7943
931.464192 86.877 -168.6235
938.213966 86.843 -168.4501
945.012651 86.818 -168.2725
951.860602 86.801 -168.0889
958.758176 86.794 -167.8973
965.705733 86.794 -167.6963
972.703635 86.802 -167.4844
979.752246 86.817 -167.2607
986.851935 86.838 -167.0250
994.003071 86.865 -166.7777
1001.206027 86.898 -166.5202
1008.461179 86.938 -166.2549
1015.768904 86.985 -165.9845
1023.129584 87.039 -165.7125
1030.543603 87.101 -165.4427
1038.011347 87.170 -165.1788
1045.533205 87.248 -164.9239
1053.109569 87.333 -164.6805
1060.740836 87.426 -164.4498
1068.427401 87.524 -164.2315
1076.169666 87.628 -164.0240
1083.968035 87.734 -163.8241
1091.822915 87.841 -163.6273
1099.734713 87.948 -163.4281
1107.703844 88.052 -163.2211
1115.730723 88.153 -163.0012
1123.815768 88.249 -162.7642
1131.959400 88.339 -162.5068
1140.162045 88.423 -162.2272
1148.424129 88.501 -161.9242
1156.746083 88.573 -161.5982
1165.128342 88.641 -161.2504
1173.571343 88.706 -160.8828
1182.075524 88.770 -160.4984
1190.641331 88.833 -160.1003
1199.269209 88.897 -159.6917
1207.959608 88.962 -159.2754
1216.712981 89.029 -158.8529
1225.529785 89.098 -158.4245
1234.410479 89.168 -157.9890
1243.355526 89.240 -157.5444
1252.365393 89.312 -157.0877
1261.440549 89.384 -156.6164
1270.581467 89.456 -156.1287
1279.788624 89.527 -155.6243
1289.062500 89.598 -155.1041
1298.403578 89.668 -154.5700
1307.812346 89.739 -154.0240
1317.289293 89.808 -153.4675
1326.834914 89.878 -152.9008
1336.449707 89.949 -152.3238
1346.134173 90.020 -151.7360
1355.888816 90.093 -151.1373
1365.714145 90.168 -150.5285
1375.610673 90.246 -149.9121
1385.578915 90.327 -149.2918
1395.619391 90.412 -148.6730
1405.732624 90.500 -148.0624
1415.919142 90.593 -147.4669
1426.179476 90.689 -146.8929
1436.514160 90.789 -146.3456
1446.923734 90.892 -145.8284
1457.408740 90.999 -145.3427
1467.969724 91.109 -144.8874
1478.607238 91.221 -144.4587
1489.321836 91.337 -144.0505
1500.114076 91.456 -143.6551
1510.984521 91.578 -143.2646
1521.933737 91.705 -142.8726
1532.962297 91.838 -142.4754
1544.070773 91.976 -142.0736
1555.259747 92.122 -141.6716
1566.529800 92.274 -141.2772
1577.881521 92.433 -140.8995
1589.315501 92.596 -140.5468
1600.832336 92.764 -140.2256
1612.432627 92.934 -139.9398
1624.116978 93.106 -139.6910
1635.886000 93.279 -139.4796
1647.740304 93.453 -139.3058
1659.680509 93.627 -139.1706
1671.707238 93.801 -139.0756
1683.821118 93.975 -139.0226
1696.022780 94.147 -139.0128
1708.312860 94.317 -139.0453
1720.692000 94.484 -139.1158
1733.160843 94.647 -139.2164
1745.720041 94.805 -139.3359
1758.370248 94.958 -139.4611
1771.112124 95.108 -139.5794
1783.946332 95.255 -139.6807
1796.873543 95.401 -139.7597
1809.894429 95.548 -139.8171
1823.009670 95.698 -139.8588
1836.219950 95.851 -139.8952
1849.525956 96.007 -139.9388
1862.928384 96.168 -140.0029
1876.427931 96.331 -140.1002
1890.025301 96.497 -140.2418
1903.721204 96.664 -140.4363
1917.516352 96.829 -140.6889
1931.411466 96.991 -141.0009
1945.407270 97.148 -141.3697
1959.504493 97.297 -141.7889
1973.703870 97.436 -142.2490
1988.006142 97.566 -142.7389
2002.412054 97.684 -143.2473
2016.922357 97.791 -143.7645
2031.537808 97.888 -144.2841
2046.259169 97.975 -144.8039
2061.087206 98.054 -145.3259
2076.022694 98.126 -145.8560
2091.066410 98.190 -146.4029
2106.219139 98.249 -146.9761
2121.481671 98.301 -147.5844
2136.854802 98.347 -148.2341
2152.339333 98.387 -148.9276
2167.936071 98.419 -149.6639
2183.645829 98.444 -150.4390
2199.469427 98.462 -151.2470
2215.407689 98.473 -152.0804
2231.461446 98.477 -152.9307
2247.631536 98.476 -153.7892
2263.918800 98.469 -154.6472
2280.324089 98.457 -155.4979
2296.848258 98.443 -156.3369
2313.492167 98.425 -157.1628
2330.256685 98.406 -157.9767
2347.142685 98.386 -158.7815
2364.151049 98.364 -159.5807
2381.282662 98.340 -160.3771
2398.538418 98.314 -161.1717
2415.919216 98.284 -161.9642
2433.425962 98.252 -162.7528
2451.059570 98.215 -163.5351
2468.820958 98.174 -164.3079
2486.711052 98.129 -165.0670
2504.730786 98.080 -165.8073
2522.881098 98.027 -166.5219
2541.162934 97.972 -167.2035
2559.577248 97.915 -167.8451
2578.125000 97.858 -168.4419
2596.807157 97.805 -168.9919
2615.624692 97.756 -169.4964
2634.578586 97.715 -169.9590
2653.669829 97.682 -170.3845
2672.899414 97.660 -170.7779
2692.268345 97.648 -171.1429
2711.777632 97.646 -171.4817
2731.428290 97.654 -171.7953
2751.221345 97.671 -172.0830
2771.157829 97.696 -172.3434
2791.238781 97.728 -172.5747
2811.465248 97.766 -172.7757
2831.838284 97.808 -172.9466
2852.358952 97.853 -173.0895
2873.028321 97.899 -173.2079
2893.847468 97.943 -173.3055
2914.817480 97.985 -173.3851
2935.939449 98.023 -173.4486
2957.214476 98.054 -173.4966
2978.643672 98.079 -173.5298
3000.228152 98.096 -173.5482
3021.969041 98.104 -173.5518
3043.867475 98.104 -173.5396
3065.924593 98.097 -173.5103
3088.141547 98.082 -173.4631
3110.519493 98.062 -173.3985
3133.059600 98.036 -173.3189
3155.763041 98.008 -173.2279
3178.631001 97.977 -173.1296
3201.664672 97.945 -173.0276
