* Measurement data measured by REW V5.31.3
* Source: EXCL: Headset (USB-C to 3.5mm Headphone Jack Adapter), MICROPHONE (Master Volume), 0, volume: 0.260
* Format: 256k Log Swept Sine, 1 sweep at -12.0 dBFS with no timing reference
* Dated: Feb 9, 2025 10:00:00 PM
* REW Settings:
*  C-weighting compensation: Off
*  Target level: 75.0 dB
* Note: ; 
* Measurement: AKG K701 L8
* Smoothing: 1/6 octave
* Frequency Step: 96 ppo
* Start Frequency: 20.0 Hz
*
* Freq(Hz) SPL(dB) Phase(degrees)
20.141602 83.600 -45.1977
20.287556 83.607 -45.4185
20.434568 83.614 -45.7168
20.582645 83.621 -46.0872
20.731796 83.624 -46.5231
20.882027 83.623 -47.0170
21.033346 83.616 -47.5608
21.185763 83.602 -48.1462
21.339284 83.582 -48.7647
21.493917 83.557 -49.4083
21.649671 83.528 -50.0694
21.806553 83.495 -50.7414
21.964572 83.462 -51.4190
22.123737 83.430 -52.0979
22.284054 83.400 -52.7751
22.445534 83.374 -53.4484
22.608183 83.353 -54.1162
22.772012 83.337 -54.7775
22.937027 83.327 -55.4314
23.103238 83.322 -56.0767
23.270654 83.324 -56.7123
23.439282 83.331 -57.3373
23.609133 83.344 -57.9507
23.780215 83.364 -58.5525
23.952536 83.391 -59.1433
24.126106 83.426 -59.7252
24.300934 83.469 -60.3015
24.477028 83.520 -60.8766
24.654399 83.580 -61.4565
24.833055 83.648 -62.0471
25.013005 83.722 -62.6546
25.194260 83.802 -63.2844
25.376828 83.885 -63.9402
25.560719 83.969 -64.6237
25.745942 84.052 -65.3344
25.932508 84.131 -66.0691
26.120426 84.205 -66.8225
26.309705 84.271 -67.5876
26.500356 84.329 -68.3561
26.692388 84.378 -69.1193
26.885812 84.418 -69.8686
27.080638 84.449 -70.5965
27.276876 84.471 -71.2968
27.474535 84.487 -71.9654
27.673627 84.498 -72.6000
27.874161 84.507 -73.2008
28.076149 84.516 -73.7699
28.279600 84.530 -74.3112
28.484526 84.552 -74.8303
28.690937 84.586 -75.3338
28.898843 84.635 -75.8285
29.108256 84.701 -76.3214
29.319186 84.788 -76.8186
29.531645 84.894 -77.3251
29.745644 85.019 -77.8444
29.961193 85.161 -78.3780
30.178304 85.316 -78.9258
30.396989 85.479 -79.4858
30.617258 85.645 -80.0549
30.839123 85.808 -80.6289
31.062596 85.963 -81.2035
31.287688 86.104 -81.7751
31.514412 86.227 -82.3410
31.742778 86.328 -82.9005
31.972800 86.405 -83.4553
32.204488 86.454 -84.0095
32.437855 86.476 -84.5696
32.672913 86.470 -85.1435
32.909674 86.437 -85.7397
33.148151 86.377 -86.3657
33.388356 86.294 -87.0263
33.630302 86.188 -87.7225
33.874001 86.064 -88.4505
34.119466 85.924 -89.2020
34.366710 85.772 -89.9650
34.615745 85.612 -90.7251
34.866585 85.450 -91.4676
35.119243 85.291 -92.1796
35.373731 85.138 -92.8512
35.630064 84.998 -93.4769
35.888254 84.874 -94.0555
36.148315 84.769 -94.5897
36.410261 84.685 -95.0850
36.674104 84.624 -95.5488
36.939860 84.586 -95.9897
37.207542 84.571 -96.4168
37.477163 84.578 -96.8389
37.748738 84.608 -97.2642
38.022281 84.658 -97.6992
38.297806 84.729 -98.1483
38.575327 84.820 -98.6128
38.854860 84.929 -99.0914
39.136419 85.056 -99.5805
39.420017 85.202 -100.0763
39.705671 85.365 -100.5755
39.993395 85.546 -101.0768
40.283203 85.742 -101.5807
40.575112 85.953 -102.0884
40.869136 86.175 -102.6006
41.165290 86.407 -103.1159
41.463591 86.645 -103.6303
41.764053 86.888 -104.1386
42.066693 87.133 -104.6356
42.371525 87.380 -105.1186
42.678567 87.626 -105.5882
42.987834 87.870 -106.0477
43.299341 88.107 -106.5022
43.613106 88.336 -106.9558
43.929145 88.553 -107.4101
44.247473 88.756 -107.8640
44.568109 88.944 -108.3149
44.891068 89.117 -108.7616
45.216367 89.273 -109.2051
45.544023 89.414 -109.6503
45.874054 89.538 -110.1036
46.206476 89.645 -110.5706
46.541307 89.734 -111.0527
46.878565 89.805 -111.5458
47.218266 89.857 -112.0406
47.560429 89.892 -112.5253
47.905072 89.911 -112.9898
48.252212 89.917 -113.4283
48.601867 89.912 -113.8416
48.954056 89.898 -114.2359
49.308798 89.877 -114.6199
49.666109 89.850 -115.0010
50.026010 89.816 -115.3829
50.388520 89.777 -115.7645
50.753656 89.733 -116.1409
51.121437 89.685 -116.5064
51.491884 89.636 -116.8568
51.865016 89.589 -117.1920
52.240851 89.545 -117.5159
52.619410 89.507 -117.8346
53.000712 89.473 -118.1544
53.384777 89.444 -118.4788
53.771625 89.419 -118.8072
54.161276 89.395 -119.1350
54.553751 89.373 -119.4551
54.949070 89.352 -119.7602
55.347254 89.332 -120.0451
55.748323 89.312 -120.3081
56.152298 89.295 -120.5513
56.559201 89.279 -120.7797
56.969052 89.264 -121.0002
57.381873 89.249 -121.2201
57.797686 89.234 -121.4463
58.216512 89.217 -121.6847
58.638373 89.199 -121.9399
59.063291 89.178 -122.2150
59.491288 89.154 -122.5107
59.922386 89.129 -122.8252
60.356608 89.102 -123.1539
60.793977 89.074 -123.4900
61.234515 89.045 -123.8261
61.678246 89.018 -124.1562
62.125192 88.993 -124.4765
62.575377 88.971 -124.7870
63.028824 88.953 -125.0908
63.485557 88.939 -125.3928
63.945599 88.930 -125.6992
64.408975 88.925 -126.0153
64.875709 88.924 -126.3449
65.345825 88.925 -126.6899
65.819348 88.928 -127.0498
66.296302 88.932 -127.4222
66.776713 88.937 -127.8037
67.260604 88.941 -128.1904
67.748002 88.946 -128.5782
68.238932 88.950 -128.9638
68.733420 88.954 -129.3441
69.231490 88.957 -129.7172
69.733170 88.961 -130.0817
70.238485 88.964 -130.4374
70.747463 88.968 -130.7847
71.260128 88.973 -131.1247
71.776508 88.978 -131.4588
72.296630 88.986 -131.7886
72.820521 88.996 -132.1154
73.348209 89.008 -132.4406
73.879720 89.022 -132.7651
74.415083 89.039 -133.0898
74.954326 89.057 -133.4153
75.497475 89.077 -133.7422
76.044561 89.099 -134.0704
76.595612 89.120 -134.3998
77.150655 89.142 -134.7303
77.709720 89.162 -135.0619
78.272837 89.181 -135.3946
78.840034 89.197 -135.7287
79.411342 89.210 -136.0642
79.986789 89.220 -136.4011
80.566406 89.227 -136.7393
81.150224 89.231 -137.0785
81.738272 89.231 -137.4185
82.330581 89.230 -137.7591
82.927182 89.227 -138.1000
83.528107 89.224 -138.4409
84.133386 89.223 -138.7817
84.743051 89.227 -139.1218
85.357134 89.237 -139.4608
85.975667 89.257 -139.7985
86.598682 89.289 -140.1344
87.226212 89.338 -140.4684
87.858289 89.405 -140.8001
88.494946 89.493 -141.1295
89.136217 89.604 -141.4561
89.782135 89.738 -141.7798
90.432733 89.893 -142.1005
91.088046 90.069 -142.4182
91.748108 90.261 -142.7330
92.412952 90.464 -143.0452
93.082615 90.674 -143.3544
93.757130 90.886 -143.6599
94.436533 91.093 -143.9603
95.120859 91.293 -144.2545
95.810144 91.479 -144.5416
96.504423 91.651 -144.8217
97.203734 91.806 -145.0961
97.908112 91.942 -145.3666
98.617595 92.060 -145.6357
99.332219 92.162 -145.9056
100.052021 92.249 -146.1778
100.777039 92.323 -146.4526
101.507311 92.388 -146.7289
102.242875 92.444 -147.0041
102.983769 92.495 -147.2750
103.730032 92.540 -147.5388
104.481702 92.582 -147.7937
105.238820 92.619 -148.0399
106.001424 92.650 -148.2793
106.769554 92.675 -148.5148
107.543250 92.691 -148.7497
108.322553 92.697 -148.9861
109.107503 92.691 -149.2253
109.898141 92.672 -149.4675
110.694508 92.640 -149.7124
111.496646 92.594 -149.9597
112.304596 92.536 -150.2088
113.118402 92.465 -150.4593
113.938104 92.385 -150.7103
114.763747 92.297 -150.9609
115.595372 92.203 -151.2105
116.433024 92.106 -151.4584
117.276746 92.008 -151.7040
118.126581 91.911 -151.9467
118.982575 91.815 -152.1859
119.844772 91.723 -152.4214
120.713217 91.634 -152.6532
121.587954 91.548 -152.8816
122.469031 91.463 -153.1070
123.356492 91.380 -153.3300
124.250384 91.297 -153.5513
125.150753 91.211 -153.7715
126.057647 91.123 -153.9912
126.971113 91.029 -154.2110
127.891198 90.930 -154.4313
128.817950 90.825 -154.6524
129.751418 90.713 -154.8741
130.691651 90.595 -155.0959
131.638696 90.471 -155.3173
132.592604 90.344 -155.5375
133.553425 90.215 -155.7562
134.521208 90.088 -155.9733
135.496004 89.964 -156.1889
136.477864 89.849 -156.4032
137.466839 89.746 -156.6161
138.462981 89.656 -156.8279
139.466340 89.584 -157.0384
140.476971 89.531 -157.2473
141.494925 89.497 -157.4547
142.520256 89.482 -157.6605
143.553016 89.482 -157.8651
144.593260 89.496 -158.0690
145.641043 89.518 -158.2729
146.696418 89.546 -158.4773
147.759441 89.575 -158.6828
148.830166 89.602 -158.8900
149.908651 89.625 -159.0988
150.994951 89.640 -159.3091
152.089123 89.648 -159.5205
153.191223 89.649 -159.7326
154.301310 89.643 -159.9450
155.419441 89.632 -160.1578
156.545674 89.617 -160.3708
157.680069 89.600 -160.5839
158.822683 89.583 -160.7971
159.973578 89.567 -161.0102
161.132813 89.554 -161.2230
162.300447 89.543 -161.4354
163.476543 89.536 -161.6472
164.661162 89.532 -161.8589
165.854364 89.532 -162.0707
167.056213 89.536 -162.2834
168.266772 89.544 -162.4975
169.486102 89.555 -162.7129
170.714268 89.571 -162.9293
171.951334 89.590 -163.1456
173.197364 89.613 -163.3604
174.452424 89.639 -163.5719
175.716578 89.669 -163.7785
176.989893 89.702 -163.9790
178.272434 89.737 -164.1721
179.564270 89.772 -164.3574
180.865467 89.807 -164.5343
182.176092 89.842 -164.7027
183.496216 89.874 -164.8623
184.825905 89.904 -165.0133
186.165229 89.931 -165.1561
187.514259 89.956 -165.2918
188.873065 89.978 -165.4217
190.241717 89.998 -165.5478
191.620287 90.017 -165.6722
193.008847 90.035 -165.7969
194.407468 90.053 -165.9237
195.816225 90.070 -166.0537
197.235190 90.088 -166.1877
198.664438 90.105 -166.3261
200.104042 90.122 -166.4691
201.554078 90.138 -166.6167
203.014622 90.152 -166.7684
204.485750 90.165 -166.9232
205.967538 90.175 -167.0795
207.460064 90.182 -167.2358
208.963405 90.185 -167.3909
210.477640 90.185 -167.5439
212.002848 90.182 -167.6942
213.539108 90.175 -167.8418
215.086500 90.166 -167.9868
216.645105 90.155 -168.1293
218.215005 90.141 -168.2696
219.796281 90.125 -168.4079
221.389015 90.106 -168.5444
222.993292 90.085 -168.6793
224.609193 90.061 -168.8129
226.236804 90.033 -168.9456
227.876209 90.000 -169.0775
229.527494 89.963 -169.2086
231.190745 89.921 -169.3386
232.866048 89.873 -169.4672
234.553491 89.821 -169.5938
236.253163 89.765 -169.7184
237.965150 89.705 -169.8410
239.689544 89.643 -169.9624
241.426433 89.578 -170.0833
243.175909 89.513 -170.2044
244.938062 89.447 -170.3262
246.712984 89.382 -170.4489
248.500768 89.319 -170.5724
250.301507 89.258 -170.6965
252.115295 89.201 -170.8211
253.942226 89.147 -170.9461
255.782396 89.099 -171.0715
257.635901 89.055 -171.1976
259.502837 89.018 -171.3242
261.383301 88.987 -171.4516
263.277392 88.962 -171.5796
265.185209 88.943 -171.7079
267.106850 88.931 -171.8362
269.042417 88.925 -171.9642
270.992009 88.923 -172.0916
272.955729 88.927 -172.2182
274.933678 88.935 -172.3435
276.925961 88.946 -172.4674
278.932681 88.961 -172.5893
280.953942 88.977 -172.7091
282.989850 88.996 -172.8263
285.040511 89.017 -172.9405
287.106032 89.041 -173.0516
289.186521 89.067 -173.1597
291.282086 89.098 -173.2654
293.392836 89.134 -173.3689
295.518881 89.175 -173.4709
297.660333 89.221 -173.5714
299.817302 89.273 -173.6706
301.989902 89.330 -173.7681
304.178245 89.390 -173.8636
306.382446 89.452 -173.9568
308.602620 89.515 -174.0474
310.838882 89.576 -174.1354
313.091348 89.633 -174.2210
315.360137 89.686 -174.3046
317.645367 89.732 -174.3867
319.947156 89.771 -174.4678
322.265625 89.802 -174.5482
324.600895 89.823 -174.6281
326.953086 89.835 -174.7078
329.322323 89.837 -174.7874
331.708729 89.829 -174.8668
334.112427 89.810 -174.9461
336.533543 89.781 -175.0253
338.972204 89.742 -175.1042
341.428536 89.693 -175.1827
343.902668 89.637 -175.2605
346.394729 89.572 -175.3372
348.904848 89.503 -175.4126
351.433156 89.429 -175.4863
353.979786 89.354 -175.5580
356.544869 89.279 -175.6276
359.128540 89.208 -175.6947
361.730934 89.143 -175.7588
364.352185 89.088 -175.8194
366.992431 89.045 -175.8763
369.651810 89.017 -175.9292
372.330459 89.006 -175.9782
375.028519 89.013 -176.0236
377.746130 89.038 -176.0660
380.483434 89.081 -176.1064
383.240574 89.140 -176.1461
386.017693 89.214 -176.1864
388.814937 89.300 -176.2288
391.632450 89.395 -176.2745
394.470380 89.495 -176.3248
397.328875 89.599 -176.3804
400.208084 89.704 -176.4421
403.108157 89.807 -176.5104
406.029245 89.908 -176.5857
408.971500 90.005 -176.6680
411.935076 90.099 -176.7575
414.920127 90.189 -176.8540
417.926810 90.275 -176.9571
420.955280 90.358 -177.0663
424.005695 90.438 -177.1812
427.078215 90.516 -177.3011
430.173000 90.592 -177.4251
433.290211 90.666 -177.5521
436.430010 90.737 -177.6803
439.592562 90.806 -177.8077
442.778031 90.870 -177.9313
445.986583 90.928 -178.0474
449.218386 90.980 -178.1518
452.473607 91.023 -178.2394
455.752418 91.056 -178.3048
459.054987 91.079 -178.3428
462.381489 91.091 -178.3486
465.732096 91.093 -178.3190
469.106983 91.085 -178.2527
472.506325 91.069 -178.1510
475.930301 91.045 -178.0179
479.379088 91.017 -177.8598
482.852867 90.986 -177.6849
486.351817 90.952 -177.5020
489.876123 90.918 -177.3198
493.425968 90.884 -177.1463
497.001536 90.850 -176.9875
500.603014 90.815 -176.8478
504.230589 90.780 -176.7295
507.884452 90.744 -176.6334
511.564792 90.706 -176.5587
515.271802 90.666 -176.5039
519.005673 90.624 -176.4666
522.766602 90.579 -176.4442
526.554785 90.534 -176.4341
530.370418 90.490 -176.4337
534.213700 90.448 -176.4410
538.084833 90.411 -176.4543
541.984018 90.379 -176.4729
545.911457 90.355 -176.4964
549.867357 90.340 -176.5253
553.851922 90.332 -176.5602
557.865362 90.333 -176.6021
561.907884 90.339 -176.6512
565.979700 90.350 -176.7076
570.081022 90.362 -176.7704
574.212064 90.374 -176.8383
578.373042 90.383 -176.9091
582.564171 90.387 -176.9801
586.785671 90.384 -177.0479
591.037762 90.374 -177.1092
595.320665 90.355 -177.1601
599.634604 90.327 -177.1975
603.979804 90.290 -177.2182
608.356491 90.244 -177.2204
612.764893 90.191 -177.2026
617.205240 90.131 -177.1648
621.677763 90.067 -177.1078
626.182696 89.999 -177.0336
630.720274 89.930 -176.9447
635.290733 89.861 -176.8436
639.894312 89.795 -176.7325
644.531250 89.734 -176.6123
649.201789 89.677 -176.4829
653.906173 89.627 -176.3431
658.644647 89.585 -176.1906
663.417457 89.550 -176.0226
668.224854 89.522 -175.8361
673.067086 89.501 -175.6288
677.944408 89.487 -175.3994
682.857073 89.478 -175.1487
687.805336 89.474 -174.8795
692.789457 89.474 -174.5971
697.809695 89.477 -174.3087
702.866312 89.481 -174.0225
707.959571 89.487 -173.7465
713.089738 89.492 -173.4878
718.257080 89.495 -173.2512
723.461867 89.496 -173.0390
728.704370 89.495 -172.8518
733.984862 89.490 -172.6879
739.303619 89.481 -172.5451
744.660918 89.470 -172.4201
750.057038 89.456 -172.3099
755.492260 89.439 -172.2117
760.966869 89.420 -172.1227
766.481148 89.399 -172.0408
772.035387 89.375 -171.9642
777.629873 89.348 -171.8912
783.264900 89.318 -171.8205
788.940760 89.283 -171.7510
794.657750 89.243 -171.6818
800.416168 89.198 -171.6123
806.216313 89.146 -171.5419
812.058489 89.087 -171.4706
817.943000 89.021 -171.3981
823.870152 88.948 -171.3246
829.840255 88.869 -171.2500
835.853619 88.783 -171.1741
841.910559 88.692 -171.0966
848.011390 88.597 -171.0168
854.156430 88.498 -170.9339
860.346000 88.397 -170.8468
866.580422 88.294 -170.7543
872.860020 88.192 -170.6551
879.185124 88.092 -170.5485
885.556062 87.994 -170.4337
891.973166 87.901 -170.3110
898.436771 87.813 -170.1808
904.947215 87.733 -170.0442
911.504835 87.660 -169.9024
918.109975 87.596 -169.7567
924.762978 87.541 -169.6078
931.464192 87.497 -169.4562
938.213966 87.462 -169.3016
945.012651 87.437 -169.1432
951.860602 87.421 -168.9794
958.758176 87.413 -168.8083
965.705733 87.413 -168.6276
972.703635 87.420 -168.4349
979.752246 87.434 -168.2285
986.851935 87.454 -168.0075
994.003071 87.480 -167.7723
1001.206027 87.513 -167.5246
1008.461179 87.552 -167.2672
1015.768904 87.599 -167.0036
1023.129584 87.652 -166.7376
1030.543603 87.714 -166.4730
1038.011347 87.783 -166.2125
1045.533205 87.861 -165.9580
1053.109569 87.946 -165.7104
1060.740836 88.039 -165.4699
1068.427401 88.139 -165.2357
1076.169666 88.244 -165.0063
1083.968035 88.354 -164.7798
1091.822915 88.467 -164.5538
1099.734713 88.581 -164.3259
1107.703844 88.694 -164.0937
1115.730723 88.805 -163.8554
1123.815768 88.913 -163.6096
1131.959400 89.015 -163.3553
1140.162045 89.112 -163.0925
1148.424129 89.202 -162.8210
1156.746083 89.287 -162.5410
1165.128342 89.367 -162.2523
1173.571343 89.441 -161.9540
1182.075524 89.513 -161.6449
1190.641331 89.583 -161.3234
1199.269209 89.652 -160.9882
1207.959608 89.722 -160.6382
1216.712981 89.794 -160.2735
1225.529785 89.868 -159.8952
1234.410479 89.946 -159.5057
1243.355526 90.027 -159.1085
1252.365393 90.110 -158.7078
1261.440549 90.194 -158.3081
1270.581467 90.280 -157.9132
1279.788624 90.364 -157.5264
1289.062500 90.447 -157.1492
1298.403578 90.527 -156.7817
1307.812346 90.605 -156.4222
1317.289293 90.678 -156.0678
1326.834914 90.749 -155.7146
1336.449707 90.816 -155.3586
1346.134173 90.881 -154.9968
1355.888816 90.944 -154.6271
1365.714145 91.005 -154.2483
1375.610673 91.065 -153.8593
1385.578915 91.124 -153.4589
1395.619391 91.182 -153.0458
1405.732624 91.241 -152.6194
1415.919142 91.300 -152.1802
1426.179476 91.361 -151.7304
1436.514160 91.425 -151.2737
1446.923734 91.493 -150.8147
1457.408740 91.565 -150.3579
1467.969724 91.642 -149.9071
1478.607238 91.725 -149.4649
1489.321836 91.813 -149.0325
1500.114076 91.906 -148.6105
1510.984521 92.005 -148.1987
1521.933737 92.110 -147.7966
1532.962297 92.220 -147.4034
1544.070773 92.334 -147.0186
1555.259747 92.453 -146.6414
1566.529800 92.574 -146.2715
1577.881521 92.699 -145.9082
1589.315501 92.826 -145.5508
1600.832336 92.955 -145.1986
1612.432627 93.086 -144.8506
1624.116978 93.218 -144.5062
1635.886000 93.352 -144.1652
1647.740304 93.487 -143.8277
1659.680509 93.626 -143.4945
1671.707238 93.767 -143.1666
1683.821118 93.911 -142.8455
1696.022780 94.059 -142.5334
1708.312860 94.211 -142.2328
1720.692000 94.368 -141.9464
1733.160843 94.528 -141.6767
1745.720041 94.693 -141.4262
1758.370248 94.861 -141.1974
1771.112124 95.032 -140.9932
1783.946332 95.205 -140.8165
1796.873543 95.380 -140.6700
1809.894429 95.554 -140.5553
1823.009670 95.729 -140.4725
1836.219950 95.902 -140.4200
1849.525956 96.073 -140.3950
1862.928384 96.243 -140.3946
1876.427931 96.412 -140.4166
1890.025301 96.580 -140.4601
1903.721204 96.749 -140.5254
1917.516352 96.918 -140.6141
1931.411466 97.087 -140.7283
1945.407270 97.256 -140.8710
1959.504493 97.424 -141.0453
1973.703870 97.591 -141.2554
1988.006142 97.754 -141.5057
2002.412054 97.914 -141.8007
2016.922357 98.068 -142.1446
2031.537808 98.214 -142.5410
2046.259169 98.351 -142.9920
2061.087206 98.478 -143.4976
2076.022694 98.594 -144.0555
2091.066410 98.697 -144.6611
2106.219139 98.788 -145.3083
2121.481671 98.867 -145.9908
2136.854802 98.936 -146.7026
2152.339333 98.995 -147.4398
2167.936071 99.048 -148.1997
2183.645829 99.095 -148.9816
2199.469427 99.137 -149.7854
2215.407689 99.176 -150.6115
2231.461446 99.212 -151.4598
2247.631536 99.245 -152.3291
2263.918800 99.275 -153.2177
2280.324089 99.303 -154.1226
2296.848258 99.327 -155.0404
2313.492167 99.348 -155.9667
2330.256685 99.364 -156.8968
2347.142685 99.377 -157.8257
2364.151049 99.385 -158.7485
2381.282662 99.390 -159.6617
2398.538418 99.392 -160.5635
2415.919216 99.392 -161.4541
2433.425962 99.390 -162.3350
2451.059570 99.387 -163.2092
2468.820958 99.383 -164.0793
2486.711052 99.378 -164.9481
2504.730786 99.374 -165.8169
2522.881098 99.368 -166.6862
2541.162934 99.363 -167.5550
2559.577248 99.358 -168.4213
2578.125000 99.354 -169.2825
2596.807157 99.352 -170.1363
2615.624692 99.353 -170.9808
2634.578586 99.358 -171.8152
2653.669829 99.369 -172.6396
2672.899414 99.386 -173.4554
2692.268345 99.410 -174.2644
2711.777632 99.440 -175.0681
2731.428290 99.476 -175.8668
2751.221345 99.516 -176.6598
2771.157829 99.560 -177.4452
2791.238781 99.606 -178.2204
2811.465248 99.652 -178.9830
2831.838284 99.697 -179.7314
2852.358952 99.738 179.5355
2873.028321 99.775 178.8182
2893.847468 99.804 178.1172
2914.817480 99.825 177.4336
2935.939449 99.835 176.7688
2957.214476 99.834 176.1251
2978.643672 99.819 175.5056
3000.228152 99.791 174.9142
3021.969041 99.748 174.3555
3043.867475 99.692 173.8338
3065.924593 99.623 173.3533
3088.141547 99.541 172.9173
3110.519493 99.448 172.5285
3133.059600 99.345 172.1891
3155.763041 99.233 171.9009
3178.631001 99.114 171.6653
