* Measurement data measured by REW V5.31.3
* Source: EXCL: Headset (USB-C to 3.5mm Headphone Jack Adapter), MICROPHONE (Master Volume), 0, volume: 0.260
* Format: 256k Log Swept Sine, 1 sweep at -12.0 dBFS with no timing reference
* Dated: Feb 9, 2025 10:00:36 PM
* REW Settings:
*  C-weighting compensation: Off
*  Target level: 75.0 dB
* Note: ; 
* Measurement: AKG K701 L10
* Smoothing: 1/6 octave
* Frequency Step: 96 ppo
* Start Frequency: 20.0 Hz
*
* Freq(Hz) SPL(dB) Phase(degrees)
20.141602 83.969 -46.6578
20.287556 83.990 -46.8694
20.434568 84.016 -47.1549
20.582645 84.044 -47.5089
20.731796 84.068 -47.9246
20.882027 84.086 -48.3945
21.033346 84.093 -48.9097
21.185763 84.088 -49.4606
21.339284 84.069 -50.0372
21.493917 84.035 -50.6293
21.649671 83.988 -51.2272
21.806553 83.928 -51.8220
21.964572 83.857 -52.4063
22.123737 83.778 -52.9747
22.284054 83.695 -53.5239
22.445534 83.610 -54.0527
22.608183 83.528 -54.5621
22.772012 83.452 -55.0550
22.937027 83.386 -55.5354
23.103238 83.331 -56.0083
23.270654 83.291 -56.4789
23.439282 83.268 -56.9519
23.609133 83.262 -57.4318
23.780215 83.276 -57.9224
23.952536 83.308 -58.4266
24.126106 83.359 -58.9471
24.300934 83.427 -59.4860
24.477028 83.511 -60.0449
24.654399 83.608 -60.6255
24.833055 83.715 -61.2289
25.013005 83.828 -61.8557
25.194260 83.945 -62.5056
25.376828 84.060 -63.1776
25.560719 84.171 -63.8695
25.745942 84.275 -64.5781
25.932508 84.370 -65.2995
26.120426 84.452 -66.0288
26.309705 84.522 -66.7611
26.500356 84.580 -67.4920
26.692388 84.625 -68.2171
26.885812 84.659 -68.9332
27.080638 84.684 -69.6383
27.276876 84.702 -70.3312
27.474535 84.716 -71.0115
27.673627 84.728 -71.6798
27.874161 84.742 -72.3367
28.076149 84.760 -72.9829
28.279600 84.788 -73.6192
28.484526 84.826 -74.2461
28.690937 84.879 -74.8638
28.898843 84.947 -75.4730
29.108256 85.033 -76.0741
29.319186 85.135 -76.6684
29.531645 85.254 -77.2571
29.745644 85.387 -77.8419
29.961193 85.531 -78.4245
30.178304 85.681 -79.0064
30.396989 85.834 -79.5887
30.617258 85.985 -80.1723
30.839123 86.129 -80.7575
31.062596 86.263 -81.3444
31.287688 86.382 -81.9330
31.514412 86.483 -82.5232
31.742778 86.564 -83.1154
31.972800 86.622 -83.7098
32.204488 86.656 -84.3063
32.437855 86.666 -84.9046
32.672913 86.650 -85.5038
32.909674 86.609 -86.1022
33.148151 86.543 -86.6973
33.388356 86.455 -87.2866
33.630302 86.346 -87.8677
33.874001 86.220 -88.4390
34.119466 86.079 -89.0003
34.366710 85.928 -89.5528
34.615745 85.771 -90.0991
34.866585 85.612 -90.6429
35.119243 85.455 -91.1880
35.373731 85.304 -91.7378
35.630064 85.162 -92.2943
35.888254 85.034 -92.8579
36.148315 84.922 -93.4273
36.410261 84.828 -94.0000
36.674104 84.754 -94.5725
36.939860 84.703 -95.1418
37.207542 84.675 -95.7054
37.477163 84.673 -96.2623
37.748738 84.695 -96.8127
38.022281 84.743 -97.3583
38.297806 84.815 -97.9007
38.575327 84.909 -98.4418
38.854860 85.025 -98.9823
39.136419 85.159 -99.5214
39.420017 85.311 -100.0571
39.705671 85.477 -100.5858
39.993395 85.657 -101.1034
40.283203 85.849 -101.6063
40.575112 86.051 -102.0919
40.869136 86.264 -102.5597
41.165290 86.486 -103.0120
41.463591 86.716 -103.4532
41.764053 86.954 -103.8894
42.066693 87.198 -104.3275
42.371525 87.446 -104.7736
42.678567 87.695 -105.2317
42.987834 87.943 -105.7037
43.299341 88.186 -106.1885
43.613106 88.422 -106.6834
43.929145 88.648 -107.1843
44.247473 88.861 -107.6872
44.568109 89.058 -108.1888
44.891068 89.239 -108.6867
45.216367 89.402 -109.1799
45.544023 89.545 -109.6684
45.874054 89.668 -110.1530
46.206476 89.771 -110.6348
46.541307 89.856 -111.1150
46.878565 89.922 -111.5941
47.218266 89.972 -112.0725
47.560429 90.006 -112.5495
47.905072 90.025 -113.0238
48.252212 90.032 -113.4938
48.601867 90.028 -113.9576
48.954056 90.014 -114.4136
49.308798 89.991 -114.8606
49.666109 89.962 -115.2979
50.026010 89.926 -115.7252
50.388520 89.887 -116.1422
50.753656 89.845 -116.5489
51.121437 89.802 -116.9453
51.491884 89.760 -117.3312
51.865016 89.720 -117.7062
52.240851 89.682 -118.0694
52.619410 89.648 -118.4198
53.000712 89.617 -118.7563
53.384777 89.589 -119.0780
53.771625 89.563 -119.3847
54.161276 89.540 -119.6766
54.553751 89.518 -119.9551
54.949070 89.497 -120.2216
55.347254 89.476 -120.4780
55.748323 89.453 -120.7257
56.152298 89.429 -120.9658
56.559201 89.403 -121.1993
56.969052 89.374 -121.4271
57.381873 89.343 -121.6503
57.797686 89.309 -121.8701
58.216512 89.273 -122.0887
58.638373 89.236 -122.3089
59.063291 89.200 -122.5342
59.491288 89.165 -122.7686
59.922386 89.132 -123.0155
60.356608 89.102 -123.2769
60.793977 89.076 -123.5527
61.234515 89.051 -123.8405
61.678246 89.030 -124.1372
62.125192 89.010 -124.4391
62.575377 88.992 -124.7436
63.028824 88.976 -125.0491
63.485557 88.962 -125.3551
63.945599 88.949 -125.6615
64.408975 88.939 -125.9683
64.875709 88.931 -126.2760
65.345825 88.926 -126.5846
65.819348 88.924 -126.8944
66.296302 88.925 -127.2057
66.776713 88.930 -127.5186
67.260604 88.937 -127.8333
67.748002 88.947 -128.1498
68.238932 88.959 -128.4679
68.733420 88.974 -128.7874
69.231490 88.990 -129.1084
69.733170 89.008 -129.4312
70.238485 89.028 -129.7567
70.747463 89.049 -130.0857
71.260128 89.071 -130.4193
71.776508 89.094 -130.7580
72.296630 89.119 -131.1019
72.820521 89.145 -131.4503
73.348209 89.172 -131.8021
73.879720 89.200 -132.1563
74.415083 89.229 -132.5120
74.954326 89.257 -132.8684
75.497475 89.285 -133.2253
76.044561 89.313 -133.5824
76.595612 89.339 -133.9399
77.150655 89.363 -134.2980
77.709720 89.385 -134.6568
78.272837 89.404 -135.0162
78.840034 89.420 -135.3760
79.411342 89.433 -135.7358
79.986789 89.441 -136.0951
80.566406 89.446 -136.4534
81.150224 89.447 -136.8103
81.738272 89.444 -137.1658
82.330581 89.439 -137.5201
82.927182 89.432 -137.8733
83.528107 89.425 -138.2256
84.133386 89.420 -138.5768
84.743051 89.418 -138.9264
85.357134 89.422 -139.2738
85.975667 89.437 -139.6182
86.598682 89.465 -139.9588
87.226212 89.509 -140.2952
87.858289 89.572 -140.6275
88.494946 89.657 -140.9560
89.136217 89.766 -141.2811
89.782135 89.898 -141.6034
90.432733 90.053 -141.9232
91.088046 90.227 -142.2410
91.748108 90.418 -142.5567
92.412952 90.621 -142.8703
93.082615 90.831 -143.1816
93.757130 91.042 -143.4906
94.436533 91.249 -143.7975
95.120859 91.447 -144.1024
95.810144 91.633 -144.4057
96.504423 91.804 -144.7076
97.203734 91.958 -145.0082
97.908112 92.094 -145.3075
98.617595 92.213 -145.6054
99.332219 92.316 -145.9013
100.052021 92.404 -146.1945
100.777039 92.480 -146.4842
101.507311 92.545 -146.7696
102.242875 92.601 -147.0499
102.983769 92.651 -147.3246
103.730032 92.695 -147.5935
104.481702 92.734 -147.8565
105.238820 92.767 -148.1138
106.001424 92.796 -148.3661
106.769554 92.817 -148.6145
107.543250 92.831 -148.8606
108.322553 92.834 -149.1055
109.107503 92.827 -149.3502
109.898141 92.807 -149.5952
110.694508 92.775 -149.8405
111.496646 92.728 -150.0861
112.304596 92.669 -150.3318
113.118402 92.598 -150.5776
113.938104 92.516 -150.8235
114.763747 92.427 -151.0695
115.595372 92.331 -151.3155
116.433024 92.231 -151.5612
117.276746 92.130 -151.8063
118.126581 92.029 -152.0505
118.982575 91.930 -152.2935
119.844772 91.833 -152.5347
120.713217 91.740 -152.7735
121.587954 91.650 -153.0092
122.469031 91.562 -153.2414
123.356492 91.476 -153.4701
124.250384 91.390 -153.6961
125.150753 91.302 -153.9204
126.057647 91.212 -154.1440
126.971113 91.117 -154.3677
127.891198 91.017 -154.5916
128.817950 90.910 -154.8154
129.751418 90.796 -155.0386
130.691651 90.676 -155.2602
131.638696 90.551 -155.4793
132.592604 90.421 -155.6953
133.553425 90.290 -155.9075
134.521208 90.160 -156.1157
135.496004 90.035 -156.3200
136.477864 89.918 -156.5209
137.466839 89.813 -156.7192
138.462981 89.722 -156.9157
139.466340 89.649 -157.1111
140.476971 89.595 -157.3060
141.494925 89.560 -157.5005
142.520256 89.544 -157.6948
143.553016 89.544 -157.8889
144.593260 89.558 -158.0824
145.641043 89.581 -158.2750
146.696418 89.610 -158.4664
147.759441 89.641 -158.6561
148.830166 89.670 -158.8436
149.908651 89.694 -159.0291
150.994951 89.712 -159.2127
152.089123 89.722 -159.3951
153.191223 89.725 -159.5770
154.301310 89.721 -159.7594
155.419441 89.712 -159.9432
156.545674 89.700 -160.1294
157.680069 89.685 -160.3188
158.822683 89.671 -160.5123
159.973578 89.657 -160.7102
161.132813 89.645 -160.9124
162.300447 89.636 -161.1186
163.476543 89.630 -161.3277
164.661162 89.627 -161.5389
165.854364 89.627 -161.7511
167.056213 89.631 -161.9636
168.266772 89.638 -162.1756
169.486102 89.649 -162.3865
170.714268 89.664 -162.5956
171.951334 89.683 -162.8024
173.197364 89.706 -163.0064
174.452424 89.733 -163.2071
175.716578 89.764 -163.4044
176.989893 89.798 -163.5978
178.272434 89.834 -163.7872
179.564270 89.871 -163.9721
180.865467 89.909 -164.1523
182.176092 89.946 -164.3278
183.496216 89.981 -164.4988
184.825905 90.014 -164.6656
186.165229 90.044 -164.8289
187.514259 90.071 -164.9895
188.873065 90.096 -165.1485
190.241717 90.118 -165.3065
191.620287 90.139 -165.4643
193.008847 90.159 -165.6224
194.407468 90.178 -165.7809
195.816225 90.196 -165.9395
197.235190 90.214 -166.0977
198.664438 90.232 -166.2552
200.104042 90.248 -166.4113
201.554078 90.264 -166.5656
203.014622 90.277 -166.7180
204.485750 90.288 -166.8682
205.967538 90.296 -167.0165
207.460064 90.301 -167.1630
208.963405 90.302 -167.3081
210.477640 90.299 -167.4523
212.002848 90.294 -167.5961
213.539108 90.285 -167.7399
215.086500 90.274 -167.8836
216.645105 90.260 -168.0272
218.215005 90.245 -168.1704
219.796281 90.228 -168.3127
221.389015 90.209 -168.4538
222.993292 90.188 -168.5937
224.609193 90.163 -168.7323
226.236804 90.136 -168.8695
227.876209 90.104 -169.0055
229.527494 90.068 -169.1403
231.190745 90.026 -169.2738
232.866048 89.979 -169.4061
234.553491 89.928 -169.5375
236.253163 89.871 -169.6684
237.965150 89.811 -169.7995
239.689544 89.748 -169.9314
241.426433 89.684 -170.0648
243.175909 89.618 -170.1998
244.938062 89.553 -170.3365
246.712984 89.488 -170.4749
248.500768 89.425 -170.6148
250.301507 89.364 -170.7565
252.115295 89.306 -170.9004
253.942226 89.252 -171.0466
255.782396 89.202 -171.1954
257.635901 89.155 -171.3463
259.502837 89.114 -171.4984
261.383301 89.078 -171.6504
263.277392 89.047 -171.8001
265.185209 89.022 -171.9452
267.106850 89.002 -172.0833
269.042417 88.989 -172.2123
270.992009 88.980 -172.3311
272.955729 88.977 -172.4392
274.933678 88.978 -172.5375
276.925961 88.984 -172.6274
278.932681 88.993 -172.7106
280.953942 89.006 -172.7889
282.989850 89.022 -172.8641
285.040511 89.041 -172.9377
287.106032 89.064 -173.0109
289.186521 89.090 -173.0850
291.282086 89.121 -173.1609
293.392836 89.158 -173.2394
295.518881 89.200 -173.3207
297.660333 89.247 -173.4047
299.817302 89.301 -173.4908
301.989902 89.359 -173.5780
304.178245 89.420 -173.6652
306.382446 89.483 -173.7515
308.602620 89.546 -173.8358
310.838882 89.608 -173.9173
313.091348 89.666 -173.9955
315.360137 89.719 -174.0698
317.645367 89.766 -174.1400
319.947156 89.806 -174.2061
322.265625 89.837 -174.2683
324.600895 89.860 -174.3269
326.953086 89.874 -174.3824
329.322323 89.877 -174.4352
331.708729 89.870 -174.4861
334.112427 89.854 -174.5359
336.533543 89.827 -174.5855
338.972204 89.791 -174.6356
341.428536 89.746 -174.6870
343.902668 89.693 -174.7404
346.394729 89.633 -174.7961
348.904848 89.568 -174.8545
351.433156 89.500 -174.9156
353.979786 89.430 -174.9792
356.544869 89.362 -175.0452
359.128540 89.298 -175.1136
361.730934 89.240 -175.1843
364.352185 89.191 -175.2571
366.992431 89.155 -175.3322
369.651810 89.132 -175.4096
372.330459 89.126 -175.4893
375.028519 89.137 -175.5715
377.746130 89.166 -175.6562
380.483434 89.211 -175.7435
383.240574 89.272 -175.8333
386.017693 89.346 -175.9257
388.814937 89.430 -176.0207
391.632450 89.523 -176.1182
394.470380 89.620 -176.2181
397.328875 89.720 -176.3205
400.208084 89.820 -176.4255
403.108157 89.919 -176.5335
406.029245 90.014 -176.6448
408.971500 90.105 -176.7598
411.935076 90.192 -176.8784
414.920127 90.275 -177.0008
417.926810 90.354 -177.1267
420.955280 90.430 -177.2561
424.005695 90.503 -177.3884
427.078215 90.574 -177.5234
430.173000 90.643 -177.6602
433.290211 90.710 -177.7979
436.430010 90.775 -177.9350
439.592562 90.837 -178.0695
442.778031 90.896 -178.1988
445.986583 90.948 -178.3196
449.218386 90.994 -178.4281
452.473607 91.031 -178.5195
455.752418 91.058 -178.5887
459.054987 91.074 -178.6301
462.381489 91.077 -178.6383
465.732096 91.069 -178.6083
469.106983 91.050 -178.5364
472.506325 91.020 -178.4208
475.930301 90.982 -178.2616
479.379088 90.936 -178.0612
482.852867 90.887 -177.8243
486.351817 90.834 -177.5572
489.876123 90.780 -177.2672
493.425968 90.728 -176.9625
497.001536 90.676 -176.6513
500.603014 90.627 -176.3413
504.230589 90.580 -176.0400
507.884452 90.536 -175.7538
511.564792 90.493 -175.4882
515.271802 90.451 -175.2472
519.005673 90.411 -175.0334
522.766602 90.372 -174.8477
526.554785 90.335 -174.6897
530.370418 90.300 -174.5577
534.213700 90.269 -174.4491
538.084833 90.243 -174.3614
541.984018 90.224 -174.2919
545.911457 90.212 -174.2382
549.867357 90.209 -174.1988
553.851922 90.214 -174.1721
557.865362 90.226 -174.1571
561.907884 90.244 -174.1522
565.979700 90.266 -174.1557
570.081022 90.290 -174.1655
574.212064 90.314 -174.1792
578.373042 90.335 -174.1944
582.564171 90.352 -174.2088
586.785671 90.363 -174.2201
591.037762 90.367 -174.2265
595.320665 90.364 -174.2267
599.634604 90.353 -174.2195
603.979804 90.334 -174.2043
608.356491 90.307 -174.1810
612.764893 90.274 -174.1500
617.205240 90.235 -174.1117
621.677763 90.191 -174.0671
626.182696 90.144 -174.0174
630.720274 90.095 -173.9639
635.290733 90.047 -173.9080
639.894312 90.001 -173.8503
644.531250 89.958 -173.7910
649.201789 89.921 -173.7298
653.906173 89.890 -173.6656
658.644647 89.865 -173.5972
663.417457 89.848 -173.5234
668.224854 89.837 -173.4431
673.067086 89.832 -173.3560
677.944408 89.832 -173.2621
682.857073 89.835 -173.1619
687.805336 89.839 -173.0563
692.789457 89.844 -172.9463
697.809695 89.848 -172.8332
702.866312 89.850 -172.7185
707.959571 89.849 -172.6036
713.089738 89.844 -172.4901
718.257080 89.835 -172.3792
723.461867 89.822 -172.2714
728.704370 89.805 -172.1670
733.984862 89.784 -172.0656
739.303619 89.760 -171.9669
744.660918 89.733 -171.8699
750.057038 89.704 -171.7740
755.492260 89.674 -171.6788
760.966869 89.643 -171.5838
766.481148 89.610 -171.4889
772.035387 89.576 -171.3938
777.629873 89.540 -171.2985
783.264900 89.501 -171.2027
788.940760 89.459 -171.1063
794.657750 89.413 -171.0091
800.416168 89.363 -170.9111
806.216313 89.306 -170.8123
812.058489 89.243 -170.7129
817.943000 89.174 -170.6131
823.870152 89.098 -170.5131
829.840255 89.017 -170.4131
835.853619 88.929 -170.3134
841.910559 88.837 -170.2139
848.011390 88.740 -170.1142
854.156430 88.640 -170.0134
860.346000 88.538 -169.9106
866.580422 88.436 -169.8043
872.860020 88.333 -169.6929
879.185124 88.231 -169.5748
885.556062 88.132 -169.4485
891.973166 88.038 -169.3130
898.436771 87.949 -169.1678
904.947215 87.866 -169.0130
911.504835 87.792 -168.8492
918.109975 87.726 -168.6776
924.762978 87.671 -168.4998
931.464192 87.626 -168.3171
938.213966 87.592 -168.1303
945.012651 87.568 -167.9398
951.860602 87.554 -167.7455
958.758176 87.549 -167.5463
965.705733 87.553 -167.3410
972.703635 87.565 -167.1282
979.752246 87.584 -166.9068
986.851935 87.610 -166.6763
994.003071 87.642 -166.4374
1001.206027 87.681 -166.1917
1008.461179 87.727 -165.9420
1015.768904 87.780 -165.6922
1023.129584 87.841 -165.4466
1030.543603 87.909 -165.2097
1038.011347 87.984 -164.9854
1045.533205 88.067 -164.7767
1053.109569 88.157 -164.5851
1060.740836 88.252 -164.4101
1068.427401 88.353 -164.2497
1076.169666 88.457 -164.0997
1083.968035 88.562 -163.9548
1091.822915 88.669 -163.8086
1099.734713 88.773 -163.6546
1107.703844 88.876 -163.4866
1115.730723 88.974 -163.2994
1123.815768 89.068 -163.0891
1131.959400 89.157 -162.8532
1140.162045 89.240 -162.5908
1148.424129 89.317 -162.3020
1156.746083 89.390 -161.9885
1165.128342 89.459 -161.6522
1173.571343 89.525 -161.2959
1182.075524 89.589 -160.9220
1190.641331 89.654 -160.5332
1199.269209 89.720 -160.1316
1207.959608 89.788 -159.7193
1216.712981 89.859 -159.2982
1225.529785 89.933 -158.8705
1234.410479 90.011 -158.4389
1243.355526 90.091 -158.0069
1252.365393 90.174 -157.5777
1261.440549 90.257 -157.1540
1270.581467 90.339 -156.7370
1279.788624 90.420 -156.3258
1289.062500 90.499 -155.9183
1298.403578 90.575 -155.5113
1307.812346 90.647 -155.1013
1317.289293 90.718 -154.6853
1326.834914 90.786 -154.2610
1336.449707 90.852 -153.8272
1346.134173 90.918 -153.3836
1355.888816 90.985 -152.9311
1365.714145 91.051 -152.4715
1375.610673 91.118 -152.0071
1385.578915 91.186 -151.5403
1395.619391 91.254 -151.0733
1405.732624 91.324 -150.6085
1415.919142 91.394 -150.1478
1426.179476 91.466 -149.6928
1436.514160 91.539 -149.2448
1446.923734 91.614 -148.8046
1457.408740 91.693 -148.3721
1467.969724 91.774 -147.9467
1478.607238 91.860 -147.5282
1489.321836 91.950 -147.1162
1500.114076 92.046 -146.7108
1510.984521 92.146 -146.3123
1521.933737 92.252 -145.9210
1532.962297 92.363 -145.5369
1544.070773 92.478 -145.1599
1555.259747 92.597 -144.7898
1566.529800 92.720 -144.4261
1577.881521 92.845 -144.0687
1589.315501 92.972 -143.7171
1600.832336 93.101 -143.3709
1612.432627 93.232 -143.0295
1624.116978 93.363 -142.6926
1635.886000 93.496 -142.3600
1647.740304 93.631 -142.0318
1659.680509 93.767 -141.7088
1671.707238 93.906 -141.3921
1683.821118 94.047 -141.0832
1696.022780 94.190 -140.7838
1708.312860 94.336 -140.4950
1720.692000 94.485 -140.2165
1733.160843 94.636 -139.9466
1745.720041 94.789 -139.6825
1758.370248 94.946 -139.4215
1771.112124 95.105 -139.1624
1783.946332 95.268 -138.9068
1796.873543 95.435 -138.6584
1809.894429 95.605 -138.4230
1823.009670 95.779 -138.2073
1836.219950 95.956 -138.0181
1849.525956 96.135 -137.8620
1862.928384 96.315 -137.7455
1876.427931 96.497 -137.6738
1890.025301 96.679 -137.6507
1903.721204 96.860 -137.6773
1917.516352 97.039 -137.7519
1931.411466 97.215 -137.8697
1945.407270 97.387 -138.0244
1959.504493 97.554 -138.2094
1973.703870 97.716 -138.4187
1988.006142 97.872 -138.6484
2002.412054 98.023 -138.8960
2016.922357 98.169 -139.1618
2031.537808 98.309 -139.4483
2046.259169 98.444 -139.7604
2061.087206 98.573 -140.1049
2076.022694 98.696 -140.4896
2091.066410 98.813 -140.9215
2106.219139 98.924 -141.4067
2121.481671 99.028 -141.9489
2136.854802 99.126 -142.5495
2152.339333 99.216 -143.2074
2167.936071 99.298 -143.9190
2183.645829 99.374 -144.6784
2199.469427 99.443 -145.4780
2215.407689 99.506 -146.3097
2231.461446 99.565 -147.1658
2247.631536 99.619 -148.0401
2263.918800 99.670 -148.9285
2280.324089 99.720 -149.8290
2296.848258 99.767 -150.7418
2313.492167 99.814 -151.6684
2330.256685 99.859 -152.6109
2347.142685 99.901 -153.5709
2364.151049 99.941 -154.5486
2381.282662 99.977 -155.5430
2398.538418 100.009 -156.5513
2415.919216 100.036 -157.5702
2433.425962 100.058 -158.5960
2451.059570 100.075 -159.6248
2468.820958 100.087 -160.6527
2486.711052 100.096 -161.6759
2504.730786 100.101 -162.6911
2522.881098 100.104 -163.6964
2541.162934 100.106 -164.6914
2559.577248 100.108 -165.6769
2578.125000 100.112 -166.6546
2596.807157 100.118 -167.6266
2615.624692 100.127 -168.5948
2634.578586 100.140 -169.5605
2653.669829 100.157 -170.5238
2672.899414 100.179 -171.4838
2692.268345 100.205 -172.4386
2711.777632 100.235 -173.3862
2731.428290 100.270 -174.3243
2751.221345 100.307 -175.2505
2771.157829 100.348 -176.1630
2791.238781 100.389 -177.0596
2811.465248 100.429 -177.9384
2831.838284 100.467 -178.7968
2852.358952 100.501 -179.6320
2873.028321 100.530 179.5588
2893.847468 100.552 178.7777
2914.817480 100.567 178.0252
2935.939449 100.572 177.3007
2957.214476 100.567 176.6023
2978.643672 100.552 175.9280
3000.228152 100.524 175.2765
3021.969041 100.484 174.6483
3043.867475 100.430 174.0458
3065.924593 100.363 173.4734
3088.141547 100.282 172.9364
3110.519493 100.189 172.4409
3133.059600 100.084 171.9927
3155.763041 99.968 171.5978
