* Measurement data measured by REW V5.31.3
* Source: EXCL: Headset (USB-C to 3.5mm Headphone Jack Adapter), MICROPHONE (Master Volume), 0, volume: 0.260
* Format: 256k Log Swept Sine, 1 sweep at -12.0 dBFS with no timing reference
* Dated: Feb 9, 2025 9:18:28 PM
* REW Settings:
*  C-weighting compensation: Off
*  Target level: 75.0 dB
* Note: ; 
* Measurement: KSC75 L5
* Smoothing: 1/6 octave
* Frequency Step: 96 ppo
* Start Frequency: 20.0 Hz
*
* Freq(Hz) SPL(dB) Phase(degrees)
20.141602 86.435 1.3538
20.287556 86.451 1.0987
20.434568 86.471 0.7575
20.582645 86.492 0.3405
20.731796 86.514 -0.1406
20.882027 86.533 -0.6736
21.033346 86.550 -1.2462
21.185763 86.562 -1.8467
21.339284 86.570 -2.4641
21.493917 86.575 -3.0886
21.649671 86.576 -3.7113
21.806553 86.576 -4.3251
21.964572 86.574 -4.9240
22.123737 86.573 -5.5038
22.284054 86.574 -6.0618
22.445534 86.577 -6.5965
22.608183 86.583 -7.1081
22.772012 86.594 -7.5979
22.937027 86.609 -8.0684
23.103238 86.629 -8.5229
23.270654 86.656 -8.9658
23.439282 86.688 -9.4018
23.609133 86.728 -9.8364
23.780215 86.776 -10.2748
23.952536 86.832 -10.7223
24.126106 86.896 -11.1837
24.300934 86.970 -11.6627
24.477028 87.052 -12.1619
24.654399 87.143 -12.6823
24.833055 87.240 -13.2232
25.013005 87.345 -13.7819
25.194260 87.454 -14.3544
25.376828 87.567 -14.9351
25.560719 87.682 -15.5178
25.745942 87.798 -16.0960
25.932508 87.915 -16.6636
26.120426 88.030 -17.2160
26.309705 88.144 -17.7499
26.500356 88.257 -18.2641
26.692388 88.367 -18.7595
26.885812 88.474 -19.2385
27.080638 88.578 -19.7050
27.276876 88.680 -20.1636
27.474535 88.779 -20.6190
27.673627 88.877 -21.0756
27.874161 88.975 -21.5368
28.076149 89.074 -22.0053
28.279600 89.177 -22.4827
28.484526 89.288 -22.9700
28.690937 89.409 -23.4677
28.898843 89.543 -23.9758
29.108256 89.692 -24.4947
29.319186 89.858 -25.0244
29.531645 90.040 -25.5649
29.745644 90.238 -26.1157
29.961193 90.448 -26.6761
30.178304 90.668 -27.2444
30.396989 90.891 -27.8181
30.617258 91.114 -28.3943
30.839123 91.329 -28.9694
31.062596 91.533 -29.5397
31.287688 91.719 -30.1019
31.514412 91.885 -30.6532
31.742778 92.026 -31.1917
31.972800 92.140 -31.7166
32.204488 92.224 -32.2282
32.437855 92.279 -32.7277
32.672913 92.305 -33.2169
32.909674 92.302 -33.6985
33.148151 92.273 -34.1749
33.388356 92.220 -34.6487
33.630302 92.147 -35.1219
33.874001 92.057 -35.5961
34.119466 91.955 -36.0721
34.366710 91.845 -36.5503
34.615745 91.732 -37.0305
34.866585 91.621 -37.5123
35.119243 91.516 -37.9956
35.373731 91.421 -38.4805
35.630064 91.341 -38.9679
35.888254 91.278 -39.4589
36.148315 91.235 -39.9555
36.410261 91.215 -40.4593
36.674104 91.219 -40.9719
36.939860 91.247 -41.4940
37.207542 91.299 -42.0254
37.477163 91.376 -42.5650
37.748738 91.475 -43.1107
38.022281 91.597 -43.6603
38.297806 91.739 -44.2115
38.575327 91.901 -44.7624
38.854860 92.081 -45.3121
39.136419 92.279 -45.8604
39.420017 92.492 -46.4081
39.705671 92.721 -46.9564
39.993395 92.963 -47.5071
40.283203 93.218 -48.0613
40.575112 93.485 -48.6201
40.869136 93.762 -49.1837
41.165290 94.049 -49.7517
41.463591 94.345 -50.3230
41.764053 94.646 -50.8966
42.066693 94.953 -51.4709
42.371525 95.261 -52.0449
42.678567 95.570 -52.6178
42.987834 95.876 -53.1892
43.299341 96.177 -53.7594
43.613106 96.469 -54.3284
43.929145 96.751 -54.8969
44.247473 97.021 -55.4651
44.568109 97.276 -56.0334
44.891068 97.516 -56.6020
45.216367 97.739 -57.1713
45.544023 97.945 -57.7419
45.874054 98.134 -58.3140
46.206476 98.305 -58.8881
46.541307 98.460 -59.4642
46.878565 98.597 -60.0420
47.218266 98.718 -60.6206
47.560429 98.825 -61.1990
47.905072 98.916 -61.7760
48.252212 98.995 -62.3510
48.601867 99.062 -62.9238
48.954056 99.119 -63.4948
49.308798 99.167 -64.0648
49.666109 99.207 -64.6352
50.026010 99.243 -65.2072
50.388520 99.274 -65.7821
50.753656 99.303 -66.3609
51.121437 99.332 -66.9442
51.491884 99.361 -67.5323
51.865016 99.391 -68.1246
52.240851 99.424 -68.7204
52.619410 99.461 -69.3184
53.000712 99.500 -69.9175
53.384777 99.543 -70.5169
53.771625 99.589 -71.1162
54.161276 99.637 -71.7155
54.553751 99.687 -72.3152
54.949070 99.737 -72.9160
55.347254 99.787 -73.5183
55.748323 99.835 -74.1227
56.152298 99.881 -74.7296
56.559201 99.925 -75.3391
56.969052 99.966 -75.9510
57.381873 100.005 -76.5646
57.797686 100.040 -77.1791
58.216512 100.073 -77.7936
58.638373 100.103 -78.4076
59.063291 100.130 -79.0206
59.491288 100.154 -79.6330
59.922386 100.176 -80.2450
60.356608 100.196 -80.8573
60.793977 100.214 -81.4705
61.234515 100.232 -82.0852
61.678246 100.249 -82.7021
62.125192 100.267 -83.3214
62.575377 100.285 -83.9432
63.028824 100.305 -84.5672
63.485557 100.327 -85.1929
63.945599 100.351 -85.8202
64.408975 100.378 -86.4490
64.875709 100.407 -87.0793
65.345825 100.440 -87.7114
65.819348 100.476 -88.3455
66.296302 100.515 -88.9817
66.776713 100.557 -89.6202
67.260604 100.602 -90.2614
67.748002 100.650 -90.9056
68.238932 100.701 -91.5530
68.733420 100.754 -92.2038
69.231490 100.808 -92.8579
69.733170 100.865 -93.5153
70.238485 100.923 -94.1757
70.747463 100.982 -94.8388
71.260128 101.042 -95.5045
71.776508 101.103 -96.1730
72.296630 101.165 -96.8444
72.820521 101.227 -97.5194
73.348209 101.290 -98.1984
73.879720 101.353 -98.8820
74.415083 101.417 -99.5704
74.954326 101.480 -100.2637
75.497475 101.543 -100.9617
76.044561 101.605 -101.6641
76.595612 101.666 -102.3704
77.150655 101.725 -103.0802
77.709720 101.781 -103.7929
78.272837 101.835 -104.5081
78.840034 101.885 -105.2257
79.411342 101.931 -105.9453
79.986789 101.973 -106.6671
80.566406 102.010 -107.3911
81.150224 102.044 -108.1172
81.738272 102.073 -108.8455
82.330581 102.099 -109.5758
82.927182 102.124 -110.3079
83.528107 102.147 -111.0415
84.133386 102.172 -111.7761
84.743051 102.201 -112.5115
85.357134 102.236 -113.2474
85.975667 102.280 -113.9836
86.598682 102.337 -114.7201
87.226212 102.410 -115.4568
87.858289 102.502 -116.1939
88.494946 102.615 -116.9311
89.136217 102.750 -117.6686
89.782135 102.908 -118.4061
90.432733 103.087 -119.1436
91.088046 103.285 -119.8809
91.748108 103.498 -120.6175
92.412952 103.721 -121.3531
93.082615 103.949 -122.0871
93.757130 104.177 -122.8187
94.436533 104.400 -123.5475
95.120859 104.613 -124.2728
95.810144 104.811 -124.9943
96.504423 104.994 -125.7116
97.203734 105.158 -126.4246
97.908112 105.304 -127.1332
98.617595 105.431 -127.8371
99.332219 105.542 -128.5362
100.052021 105.637 -129.2301
100.777039 105.719 -129.9184
101.507311 105.790 -130.6010
102.242875 105.853 -131.2774
102.983769 105.908 -131.9476
103.730032 105.958 -132.6112
104.481702 106.003 -133.2683
105.238820 106.042 -133.9186
106.001424 106.075 -134.5623
106.769554 106.101 -135.1993
107.543250 106.118 -135.8300
108.322553 106.125 -136.4546
109.107503 106.120 -137.0737
109.898141 106.102 -137.6882
110.694508 106.071 -138.2989
111.496646 106.025 -138.9066
112.304596 105.967 -139.5118
113.118402 105.896 -140.1148
113.938104 105.815 -140.7157
114.763747 105.726 -141.3143
115.595372 105.630 -141.9105
116.433024 105.531 -142.5038
117.276746 105.430 -143.0941
118.126581 105.330 -143.6812
118.982575 105.231 -144.2649
119.844772 105.134 -144.8452
120.713217 105.041 -145.4220
121.587954 104.950 -145.9954
122.469031 104.861 -146.5654
123.356492 104.773 -147.1322
124.250384 104.684 -147.6960
125.150753 104.592 -148.2569
126.057647 104.497 -148.8151
126.971113 104.396 -149.3708
127.891198 104.290 -149.9238
128.817950 104.176 -150.4740
129.751418 104.056 -151.0212
130.691651 103.928 -151.5648
131.638696 103.795 -152.1048
132.592604 103.657 -152.6409
133.553425 103.516 -153.1731
134.521208 103.376 -153.7016
135.496004 103.240 -154.2262
136.477864 103.111 -154.7469
137.466839 102.991 -155.2638
138.462981 102.886 -155.7765
139.466340 102.796 -156.2847
140.476971 102.724 -156.7882
141.494925 102.671 -157.2865
142.520256 102.635 -157.7795
143.553016 102.616 -158.2670
144.593260 102.609 -158.7492
145.641043 102.611 -159.2260
146.696418 102.619 -159.6976
147.759441 102.628 -160.1638
148.830166 102.636 -160.6246
149.908651 102.639 -161.0797
150.994951 102.635 -161.5289
152.089123 102.623 -161.9719
153.191223 102.603 -162.4085
154.301310 102.576 -162.8382
155.419441 102.543 -163.2608
156.545674 102.506 -163.6759
157.680069 102.465 -164.0829
158.822683 102.424 -164.4814
159.973578 102.384 -164.8709
161.132813 102.345 -165.2511
162.300447 102.308 -165.6219
163.476543 102.275 -165.9833
164.661162 102.246 -166.3356
165.854364 102.221 -166.6790
167.056213 102.200 -167.0141
168.266772 102.184 -167.3412
169.486102 102.173 -167.6608
170.714268 102.167 -167.9739
171.951334 102.168 -168.2814
173.197364 102.174 -168.5845
174.452424 102.186 -168.8850
175.716578 102.204 -169.1848
176.989893 102.227 -169.4862
178.272434 102.254 -169.7918
179.564270 102.284 -170.1041
180.865467 102.315 -170.4258
182.176092 102.346 -170.7589
183.496216 102.375 -171.1053
184.825905 102.402 -171.4658
186.165229 102.425 -171.8408
187.514259 102.443 -172.2298
188.873065 102.457 -172.6316
190.241717 102.466 -173.0445
191.620287 102.471 -173.4661
193.008847 102.472 -173.8939
194.407468 102.471 -174.3253
195.816225 102.466 -174.7576
197.235190 102.458 -175.1882
198.664438 102.448 -175.6147
200.104042 102.436 -176.0346
201.554078 102.420 -176.4458
203.014622 102.401 -176.8465
204.485750 102.379 -177.2351
205.967538 102.353 -177.6104
207.460064 102.323 -177.9715
208.963405 102.288 -178.3179
210.477640 102.250 -178.6495
212.002848 102.209 -178.9664
213.539108 102.164 -179.2689
215.086500 102.117 -179.5576
216.645105 102.068 -179.8330
218.215005 102.018 179.9038
219.796281 101.966 179.6521
221.389015 101.912 179.4108
222.993292 101.857 179.1790
224.609193 101.800 178.9556
226.236804 101.739 178.7400
227.876209 101.675 178.5313
229.527494 101.606 178.3291
231.190745 101.533 178.1326
232.866048 101.456 177.9416
234.553491 101.373 177.7553
236.253163 101.287 177.5734
237.965150 101.197 177.3953
239.689544 101.104 177.2206
241.426433 101.010 177.0491
243.175909 100.915 176.8806
244.938062 100.820 176.7147
246.712984 100.726 176.5514
248.500768 100.635 176.3904
250.301507 100.546 176.2319
252.115295 100.460 176.0756
253.942226 100.379 175.9219
255.782396 100.303 175.7711
257.635901 100.233 175.6234
259.502837 100.168 175.4794
261.383301 100.110 175.3389
263.277392 100.058 175.2022
265.185209 100.013 175.0689
267.106850 99.974 174.9388
269.042417 99.942 174.8114
270.992009 99.916 174.6866
272.955729 99.896 174.5640
274.933678 99.880 174.4437
276.925961 99.868 174.3254
278.932681 99.860 174.2092
280.953942 99.854 174.0952
282.989850 99.851 173.9832
285.040511 99.851 173.8732
287.106032 99.853 173.7652
289.186521 99.859 173.6590
291.282086 99.870 173.5545
293.392836 99.885 173.4515
295.518881 99.906 173.3500
297.660333 99.933 173.2498
299.817302 99.965 173.1510
301.989902 100.003 173.0538
304.178245 100.044 172.9583
306.382446 100.088 172.8646
308.602620 100.133 172.7731
310.838882 100.176 172.6837
313.091348 100.216 172.5967
315.360137 100.252 172.5121
317.645367 100.281 172.4299
319.947156 100.304 172.3501
322.265625 100.318 172.2728
324.600895 100.324 172.1978
326.953086 100.320 172.1253
329.322323 100.306 172.0552
331.708729 100.282 171.9877
334.112427 100.247 171.9227
336.533543 100.202 171.8602
338.972204 100.147 171.7998
341.428536 100.083 171.7415
343.902668 100.010 171.6850
346.394729 99.930 171.6302
348.904848 99.844 171.5768
351.433156 99.755 171.5245
353.979786 99.664 171.4734
356.544869 99.574 171.4233
359.128540 99.488 171.3741
361.730934 99.409 171.3259
364.352185 99.338 171.2788
366.992431 99.280 171.2330
369.651810 99.237 171.1885
372.330459 99.210 171.1454
375.028519 99.200 171.1039
377.746130 99.208 171.0638
380.483434 99.234 171.0254
383.240574 99.275 170.9885
386.017693 99.330 170.9533
388.814937 99.397 170.9198
391.632450 99.472 170.8879
394.470380 99.553 170.8577
397.328875 99.637 170.8292
400.208084 99.722 170.8022
403.108157 99.806 170.7770
406.029245 99.888 170.7534
408.971500 99.967 170.7315
411.935076 100.044 170.7113
414.920127 100.117 170.6930
417.926810 100.187 170.6763
420.955280 100.256 170.6613
424.005695 100.324 170.6478
427.078215 100.391 170.6356
430.173000 100.458 170.6247
433.290211 100.526 170.6148
436.430010 100.594 170.6057
439.592562 100.662 170.5975
442.778031 100.728 170.5902
445.986583 100.792 170.5840
449.218386 100.852 170.5791
452.473607 100.906 170.5757
455.752418 100.953 170.5739
459.054987 100.991 170.5739
462.381489 101.021 170.5755
465.732096 101.039 170.5787
469.106983 101.048 170.5835
472.506325 101.046 170.5897
475.930301 101.034 170.5974
479.379088 101.013 170.6065
482.852867 100.984 170.6171
486.351817 100.949 170.6292
489.876123 100.907 170.6427
493.425968 100.861 170.6578
497.001536 100.810 170.6743
500.603014 100.756 170.6924
504.230589 100.699 170.7119
507.884452 100.638 170.7330
511.564792 100.575 170.7555
515.271802 100.509 170.7795
519.005673 100.440 170.8051
522.766602 100.370 170.8323
526.554785 100.300 170.8612
530.370418 100.231 170.8919
534.213700 100.165 170.9245
538.084833 100.105 170.9589
541.984018 100.051 170.9952
545.911457 100.006 171.0334
549.867357 99.970 171.0734
553.851922 99.944 171.1152
557.865362 99.926 171.1588
561.907884 99.916 171.2040
565.979700 99.912 171.2510
570.081022 99.912 171.2997
574.212064 99.914 171.3499
578.373042 99.916 171.4018
582.564171 99.916 171.4553
586.785671 99.912 171.5101
591.037762 99.903 171.5664
595.320665 99.887 171.6239
599.634604 99.865 171.6825
603.979804 99.837 171.7421
608.356491 99.801 171.8026
612.764893 99.758 171.8638
617.205240 99.710 171.9260
621.677763 99.657 171.9889
626.182696 99.601 172.0528
630.720274 99.543 172.1178
635.290733 99.485 172.1841
639.894312 99.428 172.2520
644.531250 99.376 172.3216
649.201789 99.329 172.3932
653.906173 99.288 172.4672
658.644647 99.254 172.5436
663.417457 99.228 172.6226
668.224854 99.209 172.7043
673.067086 99.195 172.7887
677.944408 99.186 172.8758
682.857073 99.179 172.9655
687.805336 99.175 173.0579
692.789457 99.170 173.1530
697.809695 99.163 173.2505
702.866312 99.153 173.3505
707.959571 99.140 173.4529
713.089738 99.123 173.5575
718.257080 99.102 173.6641
723.461867 99.076 173.7726
728.704370 99.046 173.8829
733.984862 99.013 173.9949
739.303619 98.977 174.1086
744.660918 98.939 174.2238
750.057038 98.899 174.3405
755.492260 98.859 174.4586
760.966869 98.817 174.5778
766.481148 98.775 174.6981
772.035387 98.733 174.8193
777.629873 98.688 174.9412
783.264900 98.642 175.0637
788.940760 98.593 175.1867
794.657750 98.540 175.3103
800.416168 98.482 175.4346
806.216313 98.419 175.5598
812.058489 98.349 175.6860
817.943000 98.274 175.8132
823.870152 98.192 175.9415
829.840255 98.104 176.0706
835.853619 98.011 176.2004
841.910559 97.914 176.3308
848.011390 97.813 176.4617
854.156430 97.710 176.5930
860.346000 97.605 176.7246
866.580422 97.501 176.8568
872.860020 97.398 176.9897
879.185124 97.297 177.1235
885.556062 97.199 177.2581
891.973166 97.106 177.3939
898.436771 97.019 177.5308
904.947215 96.939 177.6689
911.504835 96.867 177.8083
918.109975 96.803 177.9491
924.762978 96.749 178.0912
931.464192 96.705 178.2347
938.213966 96.671 178.3797
945.012651 96.647 178.5262
951.860602 96.632 178.6745
958.758176 96.627 178.8248
965.705733 96.630 178.9773
972.703635 96.641 179.1323
979.752246 96.659 179.2899
986.851935 96.682 179.4500
994.003071 96.711 179.6126
1001.206027 96.745 179.7775
1008.461179 96.784 179.9444
1015.768904 96.828 -179.8866
1023.129584 96.877 -179.7156
1030.543603 96.932 -179.5423
1038.011347 96.994 -179.3664
1045.533205 97.063 -179.1878
1053.109569 97.140 -179.0063
1060.740836 97.225 -178.8219
1068.427401 97.316 -178.6346
1076.169666 97.415 -178.4448
1083.968035 97.519 -178.2527
1091.822915 97.628 -178.0585
1099.734713 97.739 -177.8625
1107.703844 97.850 -177.6647
1115.730723 97.960 -177.4650
1123.815768 98.067 -177.2631
1131.959400 98.170 -177.0591
1140.162045 98.268 -176.8529
1148.424129 98.360 -176.6446
1156.746083 98.447 -176.4345
1165.128342 98.528 -176.2229
1173.571343 98.606 -176.0101
1182.075524 98.681 -175.7963
1190.641331 98.753 -175.5820
1199.269209 98.825 -175.3673
1207.959608 98.898 -175.1527
1216.712981 98.971 -174.9386
1225.529785 99.046 -174.7255
1234.410479 99.122 -174.5141
1243.355526 99.199 -174.3053
1252.365393 99.276 -174.0998
1261.440549 99.352 -173.8984
1270.581467 99.426 -173.7012
1279.788624 99.498 -173.5085
1289.062500 99.567 -173.3196
1298.403578 99.633 -173.1340
1307.812346 99.695 -172.9507
1317.289293 99.753 -172.7683
1326.834914 99.809 -172.5859
1336.449707 99.861 -172.4024
1346.134173 99.910 -172.2171
1355.888816 99.957 -172.0294
1365.714145 100.002 -171.8388
1375.610673 100.045 -171.6450
1385.578915 100.086 -171.4476
1395.619391 100.126 -171.2461
1405.732624 100.163 -171.0405
1415.919142 100.200 -170.8307
1426.179476 100.236 -170.6172
1436.514160 100.272 -170.4005
1446.923734 100.309 -170.1818
1457.408740 100.347 -169.9622
1467.969724 100.388 -169.7433
1478.607238 100.432 -169.5265
1489.321836 100.479 -169.3131
1500.114076 100.531 -169.1042
1510.984521 100.586 -168.9002
1521.933737 100.645 -168.7011
1532.962297 100.707 -168.5062
1544.070773 100.772 -168.3141
1555.259747 100.840 -168.1230
1566.529800 100.909 -167.9310
1577.881521 100.979 -167.7361
1589.315501 101.049 -167.5363
1600.832336 101.121 -167.3304
1612.432627 101.193 -167.1175
1624.116978 101.265 -166.8973
1635.886000 101.338 -166.6698
1647.740304 101.411 -166.4354
1659.680509 101.486 -166.1950
1671.707238 101.562 -165.9497
1683.821118 101.641 -165.7009
1696.022780 101.722 -165.4504
1708.312860 101.805 -165.1999
1720.692000 101.892 -164.9512
1733.160843 101.981 -164.7064
1745.720041 102.073 -164.4673
1758.370248 102.167 -164.2357
1771.112124 102.264 -164.0131
1783.946332 102.361 -163.8003
1796.873543 102.459 -163.5978
1809.894429 102.557 -163.4056
1823.009670 102.655 -163.2237
1836.219950 102.751 -163.0515
1849.525956 102.845 -162.8883
1862.928384 102.939 -162.7329
1876.427931 103.031 -162.5840
1890.025301 103.122 -162.4396
1903.721204 103.212 -162.2981
1917.516352 103.302 -162.1579
1931.411466 103.391 -162.0181
1945.407270 103.480 -161.8787
1959.504493 103.569 -161.7408
1973.703870 103.657 -161.6060
1988.006142 103.743 -161.4768
2002.412054 103.827 -161.3559
2016.922357 103.908 -161.2469
2031.537808 103.985 -161.1531
2046.259169 104.056 -161.0779
2061.087206 104.122 -161.0238
2076.022694 104.181 -160.9923
2091.066410 104.235 -160.9839
2106.219139 104.282 -160.9987
2121.481671 104.324 -161.0366
2136.854802 104.361 -161.0970
2152.339333 104.394 -161.1793
2167.936071 104.426 -161.2831
2183.645829 104.456 -161.4077
2199.469427 104.487 -161.5528
2215.407689 104.520 -161.7184
2231.461446 104.555 -161.9044
2247.631536 104.593 -162.1112
2263.918800 104.635 -162.3389
2280.324089 104.681 -162.5882
2296.848258 104.732 -162.8606
2313.492167 104.787 -163.1581
2330.256685 104.846 -163.4838
2347.142685 104.909 -163.8411
2364.151049 104.975 -164.2334
2381.282662 105.044 -164.6644
2398.538418 105.114 -165.1371
2415.919216 105.185 -165.6537
2433.425962 105.257 -166.2151
2451.059570 105.327 -166.8207
2468.820958 105.397 -167.4689
2486.711052 105.465 -168.1574
2504.730786 105.532 -168.8831
2522.881098 105.598 -169.6430
2541.162934 105.663 -170.4342
2559.577248 105.727 -171.2548
2578.125000 105.793 -172.1043
2596.807157 105.860 -172.9834
2615.624692 105.929 -173.8933
2634.578586 106.001 -174.8353
2653.669829 106.074 -175.8100
2672.899414 106.150 -176.8163
2692.268345 106.226 -177.8511
2711.777632 106.303 -178.9096
2731.428290 106.380 -179.9858
2751.221345 106.455 178.9265
2771.157829 106.527 177.8334
2791.238781 106.596 176.7401
2811.465248 106.660 175.6507
2831.838284 106.718 174.5685
2852.358952 106.769 173.4962
2873.028321 106.810 172.4363
2893.847468 106.841 171.3915
2914.817480 106.860 170.3643
2935.939449 106.866 169.3568
2957.214476 106.859 168.3707
2978.643672 106.838 167.4070
3000.228152 106.803 166.4656
3021.969041 106.754 165.5447
3043.867475 106.693 164.6411
3065.924593 106.620 163.7495
3088.141547 106.535 162.8635
3110.519493 106.440 161.9762
3133.059600 106.334 161.0806
3155.763041 106.218 160.1700
