* Measurement data measured by REW V5.31.3
* Source: EXCL: Headset (USB-C to 3.5mm Headphone Jack Adapter), MICROPHONE (Master Volume), 0, volume: 0.260
* Format: 256k Log Swept Sine, 1 sweep at -12.0 dBFS with no timing reference
* Dated: Feb 9, 2025 9:17:33 PM
* REW Settings:
*  C-weighting compensation: Off
*  Target level: 75.0 dB
* Note: ; 
* Measurement: KSC75 L2
* Smoothing: 1/6 octave
* Frequency Step: 96 ppo
* Start Frequency: 20.0 Hz
*
* Freq(Hz) SPL(dB) Phase(degrees)
20.141602 86.513 -5.7038
20.287556 86.545 -5.9427
20.434568 86.585 -6.2597
20.582645 86.631 -6.6431
20.731796 86.679 -7.0801
20.882027 86.725 -7.5584
21.033346 86.766 -8.0663
21.185763 86.800 -8.5936
21.339284 86.827 -9.1318
21.493917 86.846 -9.6740
21.649671 86.856 -10.2149
21.806553 86.859 -10.7507
21.964572 86.856 -11.2791
22.123737 86.849 -11.7988
22.284054 86.839 -12.3096
22.445534 86.828 -12.8122
22.608183 86.818 -13.3081
22.772012 86.811 -13.7989
22.937027 86.808 -14.2869
23.103238 86.811 -14.7745
23.270654 86.821 -15.2641
23.439282 86.840 -15.7581
23.609133 86.869 -16.2588
23.780215 86.910 -16.7684
23.952536 86.962 -17.2889
24.126106 87.027 -17.8219
24.300934 87.104 -18.3686
24.477028 87.194 -18.9297
24.654399 87.295 -19.5053
24.833055 87.407 -20.0946
25.013005 87.526 -20.6959
25.194260 87.652 -21.3066
25.376828 87.782 -21.9230
25.560719 87.913 -22.5405
25.745942 88.044 -23.1540
25.932508 88.171 -23.7576
26.120426 88.294 -24.3457
26.309705 88.410 -24.9130
26.500356 88.519 -25.4548
26.692388 88.620 -25.9678
26.885812 88.714 -26.4498
27.080638 88.799 -26.9007
27.276876 88.877 -27.3218
27.474535 88.950 -27.7164
27.673627 89.019 -28.0892
27.874161 89.087 -28.4460
28.076149 89.156 -28.7936
28.279600 89.231 -29.1392
28.484526 89.315 -29.4896
28.690937 89.410 -29.8511
28.898843 89.521 -30.2288
29.108256 89.650 -30.6263
29.319186 89.798 -31.0452
29.531645 89.965 -31.4855
29.745644 90.149 -31.9452
29.961193 90.349 -32.4212
30.178304 90.560 -32.9093
30.396989 90.778 -33.4052
30.617258 90.998 -33.9051
30.839123 91.214 -34.4061
31.062596 91.422 -34.9068
31.287688 91.616 -35.4073
31.514412 91.791 -35.9088
31.742778 91.944 -36.4131
31.972800 92.071 -36.9222
32.204488 92.170 -37.4370
32.437855 92.238 -37.9575
32.672913 92.277 -38.4819
32.909674 92.286 -39.0072
33.148151 92.266 -39.5298
33.388356 92.222 -40.0461
33.630302 92.156 -40.5538
33.874001 92.073 -41.0522
34.119466 91.978 -41.5426
34.366710 91.875 -42.0285
34.615745 91.771 -42.5144
34.866585 91.668 -43.0055
35.119243 91.572 -43.5060
35.373731 91.484 -44.0185
35.630064 91.409 -44.5437
35.888254 91.348 -45.0801
36.148315 91.304 -45.6250
36.410261 91.278 -46.1746
36.674104 91.271 -46.7254
36.939860 91.286 -47.2744
37.207542 91.323 -47.8198
37.477163 91.382 -48.3605
37.748738 91.464 -48.8964
38.022281 91.568 -49.4276
38.297806 91.694 -49.9545
38.575327 91.841 -50.4774
38.854860 92.007 -50.9967
39.136419 92.192 -51.5132
39.420017 92.394 -52.0281
39.705671 92.614 -52.5433
39.993395 92.849 -53.0608
40.283203 93.099 -53.5827
40.575112 93.363 -54.1109
40.869136 93.638 -54.6463
41.165290 93.923 -55.1887
41.463591 94.217 -55.7371
41.764053 94.517 -56.2895
42.066693 94.822 -56.8434
42.371525 95.129 -57.3962
42.678567 95.435 -57.9457
42.987834 95.739 -58.4900
43.299341 96.038 -59.0280
43.613106 96.329 -59.5591
43.929145 96.609 -60.0835
44.247473 96.877 -60.6019
44.568109 97.131 -61.1155
44.891068 97.368 -61.6258
45.216367 97.588 -62.1345
45.544023 97.790 -62.6433
45.874054 97.973 -63.1539
46.206476 98.138 -63.6679
46.541307 98.285 -64.1870
46.878565 98.415 -64.7122
47.218266 98.529 -65.2443
47.560429 98.628 -65.7838
47.905072 98.713 -66.3302
48.252212 98.786 -66.8829
48.601867 98.847 -67.4409
48.954056 98.898 -68.0035
49.308798 98.941 -68.5704
49.666109 98.978 -69.1414
50.026010 99.010 -69.7168
50.388520 99.038 -70.2968
50.753656 99.065 -70.8814
51.121437 99.091 -71.4698
51.491884 99.117 -72.0608
51.865016 99.146 -72.6526
52.240851 99.178 -73.2437
52.619410 99.213 -73.8325
53.000712 99.252 -74.4183
53.384777 99.294 -75.0006
53.771625 99.340 -75.5800
54.161276 99.387 -76.1571
54.553751 99.436 -76.7327
54.949070 99.485 -77.3075
55.347254 99.533 -77.8818
55.748323 99.579 -78.4554
56.152298 99.623 -79.0279
56.559201 99.665 -79.5987
56.969052 99.703 -80.1673
57.381873 99.738 -80.7339
57.797686 99.769 -81.2993
58.216512 99.798 -81.8653
58.638373 99.824 -82.4343
59.063291 99.848 -83.0094
59.491288 99.870 -83.5935
59.922386 99.891 -84.1887
60.356608 99.912 -84.7956
60.793977 99.932 -85.4137
61.234515 99.952 -86.0407
61.678246 99.972 -86.6738
62.125192 99.992 -87.3102
62.575377 100.013 -87.9474
63.028824 100.035 -88.5841
63.485557 100.059 -89.2195
63.945599 100.084 -89.8534
64.408975 100.111 -90.4860
64.875709 100.140 -91.1178
65.345825 100.171 -91.7490
65.819348 100.205 -92.3799
66.296302 100.243 -93.0108
66.776713 100.283 -93.6422
67.260604 100.325 -94.2743
67.748002 100.370 -94.9078
68.238932 100.418 -95.5429
68.733420 100.467 -96.1799
69.231490 100.518 -96.8191
69.733170 100.571 -97.4608
70.238485 100.625 -98.1051
70.747463 100.680 -98.7527
71.260128 100.737 -99.4040
71.776508 100.794 -100.0594
72.296630 100.852 -100.7192
72.820521 100.910 -101.3837
73.348209 100.970 -102.0527
73.879720 101.030 -102.7259
74.415083 101.090 -103.4028
74.954326 101.150 -104.0831
75.497475 101.210 -104.7663
76.044561 101.269 -105.4519
76.595612 101.326 -106.1398
77.150655 101.381 -106.8298
77.709720 101.434 -107.5219
78.272837 101.484 -108.2160
78.840034 101.530 -108.9123
79.411342 101.573 -109.6106
79.986789 101.612 -110.3111
80.566406 101.646 -111.0135
81.150224 101.677 -111.7179
81.738272 101.704 -112.4240
82.330581 101.728 -113.1316
82.927182 101.751 -113.8404
83.528107 101.773 -114.5502
84.133386 101.797 -115.2608
84.743051 101.824 -115.9719
85.357134 101.857 -116.6833
85.975667 101.901 -117.3951
86.598682 101.956 -118.1070
87.226212 102.028 -118.8190
87.858289 102.119 -119.5309
88.494946 102.231 -120.2429
89.136217 102.365 -120.9550
89.782135 102.523 -121.6674
90.432733 102.702 -122.3799
91.088046 102.900 -123.0924
91.748108 103.113 -123.8047
92.412952 103.337 -124.5163
93.082615 103.566 -125.2267
93.757130 103.795 -125.9357
94.436533 104.019 -126.6427
95.120859 104.233 -127.3471
95.810144 104.434 -128.0483
96.504423 104.618 -128.7458
97.203734 104.784 -129.4391
97.908112 104.932 -130.1279
98.617595 105.062 -130.8123
99.332219 105.174 -131.4922
100.052021 105.272 -132.1681
100.777039 105.357 -132.8405
101.507311 105.432 -133.5099
102.242875 105.497 -134.1768
102.983769 105.557 -134.8415
103.730032 105.610 -135.5043
104.481702 105.658 -136.1652
105.238820 105.701 -136.8240
106.001424 105.738 -137.4808
106.769554 105.767 -138.1356
107.543250 105.787 -138.7887
108.322553 105.797 -139.4402
109.107503 105.794 -140.0906
109.898141 105.778 -140.7398
110.694508 105.748 -141.3880
111.496646 105.704 -142.0352
112.304596 105.647 -142.6812
113.118402 105.577 -143.3255
113.938104 105.496 -143.9677
114.763747 105.407 -144.6076
115.595372 105.311 -145.2449
116.433024 105.211 -145.8796
117.276746 105.109 -146.5117
118.126581 105.007 -147.1414
118.982575 104.906 -147.7689
119.844772 104.806 -148.3942
120.713217 104.710 -149.0173
121.587954 104.615 -149.6379
122.469031 104.522 -150.2556
123.356492 104.430 -150.8702
124.250384 104.336 -151.4812
125.150753 104.240 -152.0883
126.057647 104.140 -152.6914
126.971113 104.034 -153.2902
127.891198 103.922 -153.8850
128.817950 103.803 -154.4756
129.751418 103.675 -155.0621
130.691651 103.541 -155.6445
131.638696 103.400 -156.2228
132.592604 103.254 -156.7970
133.553425 103.105 -157.3672
134.521208 102.956 -157.9332
135.496004 102.810 -158.4949
136.477864 102.670 -159.0522
137.466839 102.540 -159.6045
138.462981 102.423 -160.1515
139.466340 102.321 -160.6926
140.476971 102.236 -161.2272
141.494925 102.169 -161.7548
142.520256 102.119 -162.2750
143.553016 102.084 -162.7872
144.593260 102.062 -163.2911
145.641043 102.048 -163.7861
146.696418 102.040 -164.2719
147.759441 102.033 -164.7477
148.830166 102.024 -165.2131
149.908651 102.010 -165.6674
150.994951 101.989 -166.1099
152.089123 101.960 -166.5400
153.191223 101.923 -166.9573
154.301310 101.879 -167.3612
155.419441 101.828 -167.7514
156.545674 101.773 -168.1276
157.680069 101.715 -168.4896
158.822683 101.657 -168.8373
159.973578 101.599 -169.1705
161.132813 101.543 -169.4893
162.300447 101.490 -169.7937
163.476543 101.440 -170.0838
164.661162 101.395 -170.3596
165.854364 101.354 -170.6214
167.056213 101.319 -170.8696
168.266772 101.289 -171.1048
169.486102 101.264 -171.3275
170.714268 101.246 -171.5389
171.951334 101.234 -171.7402
173.197364 101.229 -171.9330
174.452424 101.230 -172.1192
175.716578 101.239 -172.3008
176.989893 101.253 -172.4803
178.272434 101.272 -172.6605
179.564270 101.296 -172.8441
180.865467 101.322 -173.0339
182.176092 101.348 -173.2326
183.496216 101.375 -173.4424
184.825905 101.399 -173.6651
186.165229 101.422 -173.9018
187.514259 101.440 -174.1528
188.873065 101.456 -174.4180
190.241717 101.468 -174.6963
191.620287 101.477 -174.9860
193.008847 101.483 -175.2852
194.407468 101.487 -175.5915
195.816225 101.489 -175.9023
197.235190 101.490 -176.2152
198.664438 101.488 -176.5278
200.104042 101.485 -176.8382
201.554078 101.479 -177.1445
203.014622 101.471 -177.4456
204.485750 101.460 -177.7403
205.967538 101.446 -178.0283
207.460064 101.428 -178.3094
208.963405 101.407 -178.5836
210.477640 101.383 -178.8514
212.002848 101.355 -179.1132
213.539108 101.325 -179.3693
215.086500 101.293 -179.6202
216.645105 101.259 -179.8662
218.215005 101.222 179.8923
219.796281 101.185 179.6550
221.389015 101.145 179.4216
222.993292 101.103 179.1918
224.609193 101.058 178.9655
226.236804 101.009 178.7424
227.876209 100.956 178.5226
229.527494 100.897 178.3058
231.190745 100.834 178.0921
232.866048 100.765 177.8813
234.553491 100.691 177.6736
236.253163 100.612 177.4690
237.965150 100.529 177.2676
239.689544 100.443 177.0695
241.426433 100.355 176.8748
243.175909 100.266 176.6836
244.938062 100.176 176.4958
246.712984 100.088 176.3115
248.500768 100.000 176.1307
250.301507 99.916 175.9532
252.115295 99.834 175.7792
253.942226 99.757 175.6085
255.782396 99.684 175.4409
257.635901 99.616 175.2764
259.502837 99.553 175.1148
261.383301 99.497 174.9560
263.277392 99.447 174.7999
265.185209 99.403 174.6466
267.106850 99.365 174.4961
269.042417 99.334 174.3481
270.992009 99.308 174.2029
272.955729 99.288 174.0602
274.933678 99.272 173.9200
276.925961 99.260 173.7823
278.932681 99.252 173.6469
280.953942 99.247 173.5139
282.989850 99.244 173.3835
285.040511 99.243 173.2555
287.106032 99.246 173.1302
289.186521 99.252 173.0078
291.282086 99.263 172.8882
293.392836 99.279 172.7716
295.518881 99.300 172.6578
297.660333 99.328 172.5468
299.817302 99.361 172.4386
301.989902 99.399 172.3330
304.178245 99.441 172.2300
306.382446 99.485 172.1295
308.602620 99.530 172.0316
310.838882 99.573 171.9362
313.091348 99.613 171.8433
315.360137 99.648 171.7530
317.645367 99.678 171.6650
319.947156 99.700 171.5794
322.265625 99.714 171.4957
324.600895 99.719 171.4139
326.953086 99.714 171.3337
329.322323 99.700 171.2551
331.708729 99.675 171.1780
334.112427 99.639 171.1027
336.533543 99.594 171.0291
338.972204 99.538 170.9576
341.428536 99.473 170.8884
343.902668 99.399 170.8214
346.394729 99.319 170.7570
348.904848 99.232 170.6949
351.433156 99.142 170.6352
353.979786 99.049 170.5777
356.544869 98.958 170.5225
359.128540 98.870 170.4692
361.730934 98.789 170.4178
364.352185 98.716 170.3684
366.992431 98.656 170.3209
369.651810 98.610 170.2752
372.330459 98.581 170.2314
375.028519 98.569 170.1897
377.746130 98.575 170.1499
380.483434 98.599 170.1122
383.240574 98.638 170.0765
386.017693 98.691 170.0430
388.814937 98.756 170.0115
391.632450 98.829 169.9821
394.470380 98.908 169.9548
397.328875 98.990 169.9297
400.208084 99.073 169.9067
403.108157 99.156 169.8859
406.029245 99.236 169.8671
408.971500 99.313 169.8505
411.935076 99.387 169.8359
414.920127 99.458 169.8234
417.926810 99.527 169.8127
420.955280 99.593 169.8041
424.005695 99.659 169.7973
427.078215 99.724 169.7925
430.173000 99.790 169.7895
433.290211 99.855 169.7883
436.430010 99.922 169.7889
439.592562 99.988 169.7910
442.778031 100.052 169.7947
445.986583 100.115 169.7999
449.218386 100.174 169.8065
452.473607 100.227 169.8145
455.752418 100.273 169.8240
459.054987 100.310 169.8350
462.381489 100.339 169.8475
465.732096 100.356 169.8618
469.106983 100.364 169.8779
472.506325 100.361 169.8960
475.930301 100.348 169.9161
479.379088 100.326 169.9384
482.852867 100.297 169.9627
486.351817 100.260 169.9892
489.876123 100.217 170.0176
493.425968 100.170 170.0480
497.001536 100.118 170.0803
500.603014 100.063 170.1144
504.230589 100.004 170.1502
507.884452 99.943 170.1877
511.564792 99.879 170.2270
515.271802 99.812 170.2678
519.005673 99.743 170.3101
522.766602 99.673 170.3539
526.554785 99.603 170.3994
530.370418 99.534 170.4463
534.213700 99.468 170.4948
538.084833 99.408 170.5447
541.984018 99.354 170.5960
545.911457 99.309 170.6485
549.867357 99.273 170.7020
553.851922 99.247 170.7565
557.865362 99.229 170.8118
561.907884 99.220 170.8678
565.979700 99.216 170.9247
570.081022 99.216 170.9825
574.212064 99.218 171.0414
578.373042 99.219 171.1016
582.564171 99.219 171.1633
586.785671 99.214 171.2267
591.037762 99.205 171.2919
595.320665 99.189 171.3591
599.634604 99.167 171.4285
603.979804 99.138 171.5000
608.356491 99.102 171.5735
612.764893 99.059 171.6490
617.205240 99.011 171.7263
621.677763 98.958 171.8051
626.182696 98.902 171.8854
630.720274 98.844 171.9671
635.290733 98.787 172.0501
639.894312 98.731 172.1345
644.531250 98.680 172.2202
649.201789 98.634 172.3072
653.906173 98.594 172.3957
658.644647 98.561 172.4858
663.417457 98.536 172.5774
668.224854 98.518 172.6708
673.067086 98.505 172.7662
677.944408 98.497 172.8636
682.857073 98.491 172.9632
687.805336 98.487 173.0652
692.789457 98.483 173.1696
697.809695 98.477 173.2765
702.866312 98.468 173.3858
707.959571 98.456 173.4975
713.089738 98.439 173.6114
718.257080 98.418 173.7274
723.461867 98.393 173.8455
728.704370 98.364 173.9656
733.984862 98.331 174.0878
739.303619 98.295 174.2121
744.660918 98.257 174.3385
750.057038 98.218 174.4670
755.492260 98.177 174.5975
760.966869 98.136 174.7300
766.481148 98.094 174.8643
772.035387 98.051 175.0001
777.629873 98.007 175.1374
783.264900 97.961 175.2759
788.940760 97.912 175.4157
794.657750 97.859 175.5567
800.416168 97.801 175.6988
806.216313 97.738 175.8422
812.058489 97.669 175.9866
817.943000 97.594 176.1320
823.870152 97.513 176.2780
829.840255 97.426 176.4246
835.853619 97.334 176.5714
841.910559 97.238 176.7184
848.011390 97.138 176.8654
854.156430 97.037 177.0125
860.346000 96.933 177.1600
866.580422 96.830 177.3080
872.860020 96.728 177.4567
879.185124 96.629 177.6062
885.556062 96.533 177.7567
891.973166 96.442 177.9080
898.436771 96.357 178.0604
904.947215 96.279 178.2135
911.504835 96.209 178.3675
918.109975 96.148 178.5221
924.762978 96.097 178.6772
931.464192 96.056 178.8328
938.213966 96.025 178.9886
945.012651 96.004 179.1449
951.860602 95.993 179.3015
958.758176 95.992 179.4587
965.705733 95.998 179.6165
972.703635 96.012 179.7751
979.752246 96.033 179.9345
986.851935 96.060 -179.9053
994.003071 96.092 -179.7443
1001.206027 96.129 -179.5825
1008.461179 96.170 -179.4197
1015.768904 96.217 -179.2557
1023.129584 96.268 -179.0900
1030.543603 96.325 -178.9221
1038.011347 96.389 -178.7515
1045.533205 96.460 -178.5777
1053.109569 96.538 -178.4005
1060.740836 96.624 -178.2199
1068.427401 96.717 -178.0362
1076.169666 96.817 -177.8499
1083.968035 96.923 -177.6617
1091.822915 97.032 -177.4721
1099.734713 97.145 -177.2817
1107.703844 97.257 -177.0908
1115.730723 97.368 -176.8996
1123.815768 97.477 -176.7083
1131.959400 97.580 -176.5169
1140.162045 97.678 -176.3255
1148.424129 97.770 -176.1340
1156.746083 97.857 -175.9426
1165.128342 97.937 -175.7510
1173.571343 98.013 -175.5592
1182.075524 98.085 -175.3669
1190.641331 98.155 -175.1737
1199.269209 98.223 -174.9791
1207.959608 98.291 -174.7827
1216.712981 98.359 -174.5840
1225.529785 98.428 -174.3828
1234.410479 98.497 -174.1788
1243.355526 98.566 -173.9717
1252.365393 98.634 -173.7613
1261.440549 98.702 -173.5470
1270.581467 98.768 -173.3282
1279.788624 98.831 -173.1043
1289.062500 98.892 -172.8745
1298.403578 98.949 -172.6381
1307.812346 99.004 -172.3944
1317.289293 99.056 -172.1428
1326.834914 99.106 -171.8827
1336.449707 99.153 -171.6142
1346.134173 99.200 -171.3373
1355.888816 99.246 -171.0529
1365.714145 99.291 -170.7620
1375.610673 99.336 -170.4662
1385.578915 99.381 -170.1671
1395.619391 99.426 -169.8668
1405.732624 99.471 -169.5676
1415.919142 99.517 -169.2717
1426.179476 99.563 -168.9815
1436.514160 99.611 -168.6988
1446.923734 99.660 -168.4255
1457.408740 99.712 -168.1629
1467.969724 99.765 -167.9120
1478.607238 99.822 -167.6736
1489.321836 99.882 -167.4476
1500.114076 99.945 -167.2337
1510.984521 100.011 -167.0309
1521.933737 100.080 -166.8377
1532.962297 100.151 -166.6520
1544.070773 100.225 -166.4712
1555.259747 100.300 -166.2924
1566.529800 100.376 -166.1124
1577.881521 100.452 -165.9281
1589.315501 100.529 -165.7369
1600.832336 100.606 -165.5370
1612.432627 100.684 -165.3276
1624.116978 100.762 -165.1084
1635.886000 100.841 -164.8801
1647.740304 100.920 -164.6443
1659.680509 101.002 -164.4030
1671.707238 101.085 -164.1592
1683.821118 101.171 -163.9156
1696.022780 101.259 -163.6750
1708.312860 101.349 -163.4397
1720.692000 101.442 -163.2114
1733.160843 101.538 -162.9914
1745.720041 101.635 -162.7804
1758.370248 101.733 -162.5788
1771.112124 101.833 -162.3859
1783.946332 101.933 -162.2009
1796.873543 102.033 -162.0224
1809.894429 102.132 -161.8490
1823.009670 102.230 -161.6791
1836.219950 102.326 -161.5117
1849.525956 102.422 -161.3459
1862.928384 102.517 -161.1810
1876.427931 102.611 -161.0165
1890.025301 102.706 -160.8523
1903.721204 102.800 -160.6887
1917.516352 102.896 -160.5265
1931.411466 102.993 -160.3678
1945.407270 103.091 -160.2154
1959.504493 103.189 -160.0730
1973.703870 103.287 -159.9443
1988.006142 103.383 -159.8326
2002.412054 103.476 -159.7405
2016.922357 103.565 -159.6703
2031.537808 103.649 -159.6232
2046.259169 103.726 -159.5994
2061.087206 103.796 -159.5981
2076.022694 103.858 -159.6174
2091.066410 103.912 -159.6555
2106.219139 103.960 -159.7104
2121.481671 104.002 -159.7812
2136.854802 104.039 -159.8670
2152.339333 104.073 -159.9678
2167.936071 104.105 -160.0843
2183.645829 104.138 -160.2179
2199.469427 104.171 -160.3709
2215.407689 104.208 -160.5460
2231.461446 104.248 -160.7460
2247.631536 104.292 -160.9731
2263.918800 104.341 -161.2291
2280.324089 104.393 -161.5149
2296.848258 104.450 -161.8313
2313.492167 104.510 -162.1791
2330.256685 104.573 -162.5591
2347.142685 104.638 -162.9723
2364.151049 104.706 -163.4201
2381.282662 104.775 -163.9041
2398.538418 104.846 -164.4263
2415.919216 104.917 -164.9881
2433.425962 104.987 -165.5901
2451.059570 105.058 -166.2324
2468.820958 105.128 -166.9146
2486.711052 105.197 -167.6361
2504.730786 105.265 -168.3959
2522.881098 105.332 -169.1936
2541.162934 105.400 -170.0291
2559.577248 105.467 -170.9026
2578.125000 105.534 -171.8148
2596.807157 105.602 -172.7655
2615.624692 105.670 -173.7532
2634.578586 105.738 -174.7754
2653.669829 105.807 -175.8289
2672.899414 105.876 -176.9095
2692.268345 105.945 -178.0130
2711.777632 106.013 -179.1355
2731.428290 106.081 179.7268
2751.221345 106.147 178.5774
2771.157829 106.210 177.4200
2791.238781 106.268 176.2593
2811.465248 106.319 175.1011
2831.838284 106.362 173.9517
2852.358952 106.396 172.8174
2873.028321 106.418 171.7049
2893.847468 106.427 170.6196
2914.817480 106.423 169.5662
2935.939449 106.406 168.5480
2957.214476 106.373 167.5677
2978.643672 106.326 166.6274
3000.228152 106.264 165.7292
3021.969041 106.187 164.8752
3043.867475 106.095 164.0674
3065.924593 105.990 163.3071
3088.141547 105.874 162.5935
3110.519493 105.748 161.9227
3133.059600 105.615 161.2861
3155.763041 105.477 160.6705
3178.631001 105.336 160.0591
