* Measurement data measured by REW V5.31.3
* Source: EXCL: Headset (USB-C to 3.5mm Headphone Jack Adapter), MICROPHONE (Master Volume), 0, volume: 0.260
* Format: 256k Log Swept Sine, 1 sweep at -12.0 dBFS with no timing reference
* Dated: Feb 10, 2025 1:59:01 PM
* REW Settings:
*  C-weighting compensation: Off
*  Target level: 75.0 dB
* Note: ; 
* Measurement: Maxwell (WC FreeZe) L7
* Smoothing: 1/6 octave
* Frequency Step: 96 ppo
* Start Frequency: 20.0 Hz
*
* Freq(Hz) SPL(dB) Phase(degrees)
20.141602 99.607 19.5454
20.287556 99.645 19.0612
20.434568 99.694 18.4165
20.582645 99.749 17.6320
20.731796 99.806 16.7297
20.882027 99.862 15.7315
21.033346 99.914 14.6574
21.185763 99.961 13.5249
21.339284 100.000 12.3488
21.493917 100.034 11.1413
21.649671 100.061 9.9118
21.806553 100.084 8.6677
21.964572 100.104 7.4143
22.123737 100.123 6.1552
22.284054 100.144 4.8926
22.445534 100.167 3.6278
22.608183 100.193 2.3612
22.772012 100.225 1.0923
22.937027 100.263 -0.1795
23.103238 100.307 -1.4553
23.270654 100.357 -2.7362
23.439282 100.415 -4.0238
23.609133 100.479 -5.3193
23.780215 100.551 -6.6245
23.952536 100.629 -7.9409
24.126106 100.713 -9.2702
24.300934 100.805 -10.6143
24.477028 100.902 -11.9747
24.654399 101.004 -13.3534
24.833055 101.111 -14.7518
25.013005 101.221 -16.1711
25.194260 101.334 -17.6120
25.376828 101.448 -19.0747
25.560719 101.561 -20.5587
25.745942 101.673 -22.0625
25.932508 101.782 -23.5841
26.120426 101.888 -25.1206
26.309705 101.989 -26.6684
26.500356 102.086 -28.2235
26.692388 102.177 -29.7816
26.885812 102.262 -31.3385
27.080638 102.342 -32.8900
27.276876 102.416 -34.4325
27.474535 102.486 -35.9630
27.673627 102.552 -37.4794
27.874161 102.615 -38.9805
28.076149 102.679 -40.4662
28.279600 102.745 -41.9372
28.484526 102.815 -43.3955
28.690937 102.892 -44.8438
28.898843 102.978 -46.2853
29.108256 103.076 -47.7237
29.319186 103.186 -49.1628
29.531645 103.309 -50.6062
29.745644 103.443 -52.0569
29.961193 103.587 -53.5172
30.178304 103.738 -54.9883
30.396989 103.892 -56.4702
30.617258 104.045 -57.9619
30.839123 104.192 -59.4610
31.062596 104.329 -60.9645
31.287688 104.449 -62.4683
31.514412 104.550 -63.9679
31.742778 104.628 -65.4585
31.972800 104.679 -66.9355
32.204488 104.701 -68.3946
32.437855 104.693 -69.8319
32.672913 104.654 -71.2444
32.909674 104.585 -72.6300
33.148151 104.486 -73.9874
33.388356 104.360 -75.3163
33.630302 104.210 -76.6172
33.874001 104.039 -77.8912
34.119466 103.850 -79.1397
34.366710 103.650 -80.3640
34.615745 103.441 -81.5652
34.866585 103.228 -82.7439
35.119243 103.017 -83.9005
35.373731 102.810 -85.0345
35.630064 102.613 -86.1457
35.888254 102.429 -87.2336
36.148315 102.262 -88.2983
36.410261 102.113 -89.3402
36.674104 101.986 -90.3599
36.939860 101.881 -91.3586
37.207542 101.801 -92.3375
37.477163 101.745 -93.2978
37.748738 101.714 -94.2406
38.022281 101.707 -95.1670
38.297806 101.725 -96.0779
38.575327 101.766 -96.9745
38.854860 101.830 -97.8580
39.136419 101.916 -98.7298
39.420017 102.024 -99.5916
39.705671 102.151 -100.4448
39.993395 102.296 -101.2915
40.283203 102.459 -102.1334
40.575112 102.639 -102.9730
40.869136 102.833 -103.8130
41.165290 103.041 -104.6570
41.463591 103.260 -105.5088
41.764053 103.490 -106.3727
42.066693 103.727 -107.2532
42.371525 103.969 -108.1541
42.678567 104.214 -109.0788
42.987834 104.459 -110.0300
43.299341 104.701 -111.0096
43.613106 104.936 -112.0192
43.929145 105.164 -113.0603
44.247473 105.379 -114.1341
44.568109 105.581 -115.2417
44.891068 105.767 -116.3838
45.216367 105.934 -117.5600
45.544023 106.080 -118.7689
45.874054 106.205 -120.0074
46.206476 106.307 -121.2712
46.541307 106.385 -122.5543
46.878565 106.439 -123.8500
47.218266 106.469 -125.1512
47.560429 106.476 -126.4507
47.905072 106.461 -127.7423
48.252212 106.425 -129.0203
48.601867 106.369 -130.2805
48.954056 106.297 -131.5196
49.308798 106.208 -132.7353
49.666109 106.107 -133.9260
50.026010 105.994 -135.0907
50.388520 105.872 -136.2285
50.753656 105.743 -137.3388
51.121437 105.609 -138.4212
51.491884 105.471 -139.4756
51.865016 105.331 -140.5020
52.240851 105.191 -141.5006
52.619410 105.052 -142.4715
53.000712 104.915 -143.4148
53.384777 104.779 -144.3302
53.771625 104.645 -145.2171
54.161276 104.513 -146.0744
54.553751 104.382 -146.9008
54.949070 104.252 -147.6949
55.347254 104.121 -148.4556
55.748323 103.989 -149.1822
56.152298 103.855 -149.8744
56.559201 103.719 -150.5323
56.969052 103.580 -151.1564
57.381873 103.438 -151.7471
57.797686 103.293 -152.3052
58.216512 103.146 -152.8312
58.638373 102.996 -153.3257
59.063291 102.844 -153.7894
59.491288 102.692 -154.2232
59.922386 102.539 -154.6279
60.356608 102.386 -155.0045
60.793977 102.234 -155.3544
61.234515 102.083 -155.6789
61.678246 101.935 -155.9797
62.125192 101.790 -156.2586
62.575377 101.649 -156.5173
63.028824 101.512 -156.7576
63.485557 101.380 -156.9811
63.945599 101.253 -157.1893
64.408975 101.132 -157.3838
64.875709 101.017 -157.5662
65.345825 100.908 -157.7383
65.819348 100.806 -157.9018
66.296302 100.709 -158.0583
66.776713 100.618 -158.2096
67.260604 100.534 -158.3572
67.748002 100.455 -158.5024
68.238932 100.381 -158.6467
68.733420 100.314 -158.7912
69.231490 100.251 -158.9369
69.733170 100.193 -159.0849
70.238485 100.140 -159.2361
70.747463 100.091 -159.3916
71.260128 100.046 -159.5521
71.776508 100.005 -159.7184
72.296630 99.968 -159.8910
72.820521 99.934 -160.0700
73.348209 99.903 -160.2557
73.879720 99.874 -160.4478
74.415083 99.848 -160.6463
74.954326 99.824 -160.8507
75.497475 99.801 -161.0607
76.044561 99.779 -161.2758
76.595612 99.756 -161.4955
77.150655 99.734 -161.7191
77.709720 99.710 -161.9462
78.272837 99.685 -162.1763
78.840034 99.657 -162.4094
79.411342 99.626 -162.6451
79.986789 99.592 -162.8834
80.566406 99.554 -163.1245
81.150224 99.513 -163.3686
81.738272 99.469 -163.6163
82.330581 99.422 -163.8680
82.927182 99.373 -164.1245
83.528107 99.323 -164.3859
84.133386 99.275 -164.6524
84.743051 99.229 -164.9238
85.357134 99.188 -165.1995
85.975667 99.156 -165.4791
86.598682 99.135 -165.7617
87.226212 99.129 -166.0468
87.858289 99.141 -166.3333
88.494946 99.174 -166.6204
89.136217 99.229 -166.9071
89.782135 99.308 -167.1923
90.432733 99.409 -167.4751
91.088046 99.530 -167.7547
91.748108 99.669 -168.0302
92.412952 99.821 -168.3004
93.082615 99.981 -168.5645
93.757130 100.143 -168.8214
94.436533 100.302 -169.0701
95.120859 100.453 -169.3100
95.810144 100.592 -169.5405
96.504423 100.717 -169.7611
97.203734 100.824 -169.9716
97.908112 100.914 -170.1719
98.617595 100.986 -170.3619
99.332219 101.041 -170.5419
100.052021 101.082 -170.7119
100.777039 101.109 -170.8722
101.507311 101.126 -171.0228
102.242875 101.135 -171.1638
102.983769 101.137 -171.2953
103.730032 101.134 -171.4171
104.481702 101.126 -171.5295
105.238820 101.115 -171.6324
106.001424 101.099 -171.7260
106.769554 101.077 -171.8103
107.543250 101.048 -171.8858
108.322553 101.011 -171.9530
109.107503 100.963 -172.0130
109.898141 100.904 -172.0672
110.694508 100.834 -172.1171
111.496646 100.750 -172.1638
112.304596 100.655 -172.2085
113.118402 100.549 -172.2520
113.938104 100.434 -172.2951
114.763747 100.311 -172.3387
115.595372 100.182 -172.3835
116.433024 100.050 -172.4303
117.276746 99.917 -172.4797
118.126581 99.785 -172.5322
118.982575 99.655 -172.5883
119.844772 99.528 -172.6481
120.713217 99.404 -172.7121
121.587954 99.284 -172.7803
122.469031 99.166 -172.8530
123.356492 99.051 -172.9303
124.250384 98.936 -173.0125
125.150753 98.819 -173.1004
126.057647 98.700 -173.1949
126.971113 98.577 -173.2970
127.891198 98.449 -173.4077
128.817950 98.314 -173.5275
129.751418 98.172 -173.6568
130.691651 98.023 -173.7953
131.638696 97.868 -173.9424
132.592604 97.707 -174.0973
133.553425 97.543 -174.2587
134.521208 97.377 -174.4253
135.496004 97.213 -174.5958
136.477864 97.053 -174.7686
137.466839 96.902 -174.9426
138.462981 96.761 -175.1161
139.466340 96.635 -175.2880
140.476971 96.524 -175.4568
141.494925 96.430 -175.6208
142.520256 96.351 -175.7783
143.553016 96.287 -175.9275
144.593260 96.235 -176.0665
145.641043 96.192 -176.1931
146.696418 96.153 -176.3053
147.759441 96.114 -176.4010
148.830166 96.073 -176.4782
149.908651 96.027 -176.5350
150.994951 95.973 -176.5693
152.089123 95.911 -176.5797
153.191223 95.840 -176.5643
154.301310 95.761 -176.5214
155.419441 95.675 -176.4491
156.545674 95.584 -176.3455
157.680069 95.491 -176.2086
158.822683 95.397 -176.0371
159.973578 95.303 -175.8298
161.132813 95.212 -175.5862
162.300447 95.124 -175.3063
163.476543 95.041 -174.9905
164.661162 94.963 -174.6399
165.854364 94.892 -174.2562
167.056213 94.827 -173.8415
168.266772 94.770 -173.3982
169.486102 94.721 -172.9289
170.714268 94.681 -172.4364
171.951334 94.650 -171.9236
173.197364 94.629 -171.3933
174.452424 94.618 -170.8486
175.716578 94.616 -170.2925
176.989893 94.624 -169.7279
178.272434 94.640 -169.1583
179.564270 94.663 -168.5872
180.865467 94.692 -168.0183
182.176092 94.726 -167.4549
183.496216 94.762 -166.9003
184.825905 94.801 -166.3575
186.165229 94.842 -165.8289
187.514259 94.883 -165.3166
188.873065 94.926 -164.8222
190.241717 94.969 -164.3471
191.620287 95.013 -163.8920
193.008847 95.058 -163.4573
194.407468 95.105 -163.0430
195.816225 95.154 -162.6490
197.235190 95.203 -162.2750
198.664438 95.254 -161.9204
200.104042 95.305 -161.5845
201.554078 95.355 -161.2662
203.014622 95.403 -160.9646
204.485750 95.450 -160.6783
205.967538 95.494 -160.4062
207.460064 95.534 -160.1472
208.963405 95.571 -159.9004
210.477640 95.604 -159.6646
212.002848 95.633 -159.4389
213.539108 95.658 -159.2226
215.086500 95.681 -159.0148
216.645105 95.701 -158.8143
218.215005 95.718 -158.6201
219.796281 95.732 -158.4308
221.389015 95.743 -158.2450
222.993292 95.751 -158.0614
224.609193 95.756 -157.8788
226.236804 95.755 -157.6959
227.876209 95.750 -157.5119
229.527494 95.740 -157.3259
231.190745 95.724 -157.1370
232.866048 95.702 -156.9447
234.553491 95.676 -156.7485
236.253163 95.646 -156.5481
237.965150 95.613 -156.3435
239.689544 95.578 -156.1349
241.426433 95.543 -155.9226
243.175909 95.507 -155.7073
244.938062 95.474 -155.4897
246.712984 95.444 -155.2708
248.500768 95.417 -155.0516
250.301507 95.395 -154.8332
252.115295 95.379 -154.6168
253.942226 95.368 -154.4034
255.782396 95.365 -154.1940
257.635901 95.369 -153.9900
259.502837 95.381 -153.7926
261.383301 95.402 -153.6036
263.277392 95.431 -153.4248
265.185209 95.468 -153.2587
267.106850 95.514 -153.1078
269.042417 95.569 -152.9748
270.992009 95.631 -152.8626
272.955729 95.699 -152.7739
274.933678 95.774 -152.7115
276.925961 95.853 -152.6775
278.932681 95.936 -152.6738
280.953942 96.023 -152.7016
282.989850 96.111 -152.7611
285.040511 96.202 -152.8521
287.106032 96.293 -152.9737
289.186521 96.387 -153.1241
291.282086 96.482 -153.3014
293.392836 96.578 -153.5027
295.518881 96.675 -153.7250
297.660333 96.774 -153.9644
299.817302 96.872 -154.2166
301.989902 96.970 -154.4768
304.178245 97.065 -154.7399
306.382446 97.157 -155.0005
308.602620 97.243 -155.2537
310.838882 97.323 -155.4949
313.091348 97.396 -155.7198
315.360137 97.459 -155.9250
317.645367 97.514 -156.1075
319.947156 97.558 -156.2650
322.265625 97.592 -156.3961
324.600895 97.616 -156.5000
326.953086 97.630 -156.5764
329.322323 97.634 -156.6258
331.708729 97.629 -156.6490
334.112427 97.614 -156.6475
336.533543 97.591 -156.6230
338.972204 97.560 -156.5778
341.428536 97.522 -156.5143
343.902668 97.479 -156.4354
346.394729 97.433 -156.3443
348.904848 97.385 -156.2443
351.433156 97.337 -156.1390
353.979786 97.292 -156.0318
356.544869 97.252 -155.9261
359.128540 97.221 -155.8253
361.730934 97.200 -155.7325
364.352185 97.193 -155.6504
366.992431 97.201 -155.5814
369.651810 97.228 -155.5278
372.330459 97.273 -155.4913
375.028519 97.338 -155.4734
377.746130 97.422 -155.4749
380.483434 97.524 -155.4968
383.240574 97.641 -155.5393
386.017693 97.771 -155.6024
388.814937 97.911 -155.6857
391.632450 98.058 -155.7887
394.470380 98.208 -155.9105
397.328875 98.360 -156.0499
400.208084 98.511 -156.2058
403.108157 98.659 -156.3772
406.029245 98.803 -156.5629
408.971500 98.943 -156.7619
411.935076 99.078 -156.9733
414.920127 99.209 -157.1962
417.926810 99.336 -157.4299
420.955280 99.459 -157.6736
424.005695 99.580 -157.9269
427.078215 99.699 -158.1892
430.173000 99.817 -158.4603
433.290211 99.934 -158.7398
436.430010 100.049 -159.0276
439.592562 100.163 -159.3236
442.778031 100.273 -159.6277
445.986583 100.379 -159.9398
449.218386 100.479 -160.2601
452.473607 100.571 -160.5888
455.752418 100.655 -160.9259
459.054987 100.728 -161.2717
462.381489 100.789 -161.6262
465.732096 100.838 -161.9895
469.106983 100.875 -162.3616
472.506325 100.900 -162.7420
475.930301 100.912 -163.1305
479.379088 100.914 -163.5264
482.852867 100.904 -163.9290
486.351817 100.885 -164.3374
489.876123 100.857 -164.7501
493.425968 100.822 -165.1659
497.001536 100.778 -165.5826
500.603014 100.727 -165.9982
504.230589 100.669 -166.4099
507.884452 100.604 -166.8148
511.564792 100.532 -167.2097
515.271802 100.454 -167.5911
519.005673 100.368 -167.9554
522.766602 100.278 -168.2990
526.554785 100.184 -168.6187
530.370418 100.088 -168.9117
534.213700 99.992 -169.1760
538.084833 99.900 -169.4105
541.984018 99.813 -169.6150
545.911457 99.735 -169.7906
549.867357 99.666 -169.9393
553.851922 99.609 -170.0640
557.865362 99.562 -170.1685
561.907884 99.525 -170.2571
565.979700 99.497 -170.3344
570.081022 99.476 -170.4051
574.212064 99.460 -170.4735
578.373042 99.447 -170.5438
582.564171 99.433 -170.6195
586.785671 99.418 -170.7037
591.037762 99.400 -170.7989
595.320665 99.376 -170.9073
599.634604 99.347 -171.0304
603.979804 99.312 -171.1696
608.356491 99.269 -171.3260
612.764893 99.220 -171.5002
617.205240 99.164 -171.6930
621.677763 99.102 -171.9047
626.182696 99.035 -172.1357
630.720274 98.964 -172.3860
635.290733 98.891 -172.6557
639.894312 98.816 -172.9443
644.531250 98.741 -173.2511
649.201789 98.667 -173.5749
653.906173 98.594 -173.9139
658.644647 98.523 -174.2659
663.417457 98.453 -174.6278
668.224854 98.382 -174.9957
673.067086 98.310 -175.3651
677.944408 98.235 -175.7303
682.857073 98.155 -176.0848
687.805336 98.067 -176.4210
692.789457 97.971 -176.7307
697.809695 97.865 -177.0048
702.866312 97.747 -177.2339
707.959571 97.618 -177.4081
713.089738 97.477 -177.5181
718.257080 97.324 -177.5550
723.461867 97.161 -177.5110
728.704370 96.990 -177.3797
733.984862 96.811 -177.1562
739.303619 96.627 -176.8374
744.660918 96.440 -176.4213
750.057038 96.252 -175.9074
755.492260 96.065 -175.2962
760.966869 95.882 -174.5892
766.481148 95.704 -173.7887
772.035387 95.532 -172.8983
777.629873 95.368 -171.9228
783.264900 95.212 -170.8687
788.940760 95.066 -169.7445
794.657750 94.929 -168.5611
800.416168 94.802 -167.3319
806.216313 94.684 -166.0720
812.058489 94.577 -164.7981
817.943000 94.479 -163.5274
823.870152 94.390 -162.2763
829.840255 94.310 -161.0599
835.853619 94.239 -159.8909
841.910559 94.175 -158.7796
848.011390 94.120 -157.7332
854.156430 94.071 -156.7561
860.346000 94.029 -155.8500
866.580422 93.994 -155.0139
872.860020 93.965 -154.2445
879.185124 93.942 -153.5371
885.556062 93.926 -152.8855
891.973166 93.916 -152.2832
898.436771 93.914 -151.7236
904.947215 93.921 -151.2008
911.504835 93.936 -150.7104
918.109975 93.962 -150.2495
924.762978 93.999 -149.8171
931.464192 94.048 -149.4143
938.213966 94.108 -149.0435
945.012651 94.181 -148.7081
951.860602 94.263 -148.4118
958.758176 94.356 -148.1580
965.705733 94.456 -147.9492
972.703635 94.562 -147.7864
979.752246 94.673 -147.6693
986.851935 94.786 -147.5960
994.003071 94.900 -147.5633
1001.206027 95.015 -147.5670
1008.461179 95.131 -147.6021
1015.768904 95.246 -147.6628
1023.129584 95.362 -147.7437
1030.543603 95.479 -147.8389
1038.011347 95.598 -147.9435
1045.533205 95.720 -148.0529
1053.109569 95.847 -148.1640
1060.740836 95.977 -148.2752
1068.427401 96.113 -148.3874
1076.169666 96.253 -148.5036
1083.968035 96.396 -148.6292
1091.822915 96.540 -148.7707
1099.734713 96.682 -148.9337
1107.703844 96.819 -149.1218
1115.730723 96.949 -149.3354
1123.815768 97.068 -149.5707
1131.959400 97.174 -149.8198
1140.162045 97.265 -150.0713
1148.424129 97.341 -150.3112
1156.746083 97.404 -150.5244
1165.128342 97.454 -150.6967
1173.571343 97.495 -150.8160
1182.075524 97.531 -150.8746
1190.641331 97.565 -150.8700
1199.269209 97.601 -150.8052
1207.959608 97.643 -150.6880
1216.712981 97.693 -150.5305
1225.529785 97.752 -150.3469
1234.410479 97.820 -150.1521
1243.355526 97.896 -149.9605
1252.365393 97.981 -149.7847
1261.440549 98.070 -149.6348
1270.581467 98.164 -149.5179
1279.788624 98.259 -149.4382
1289.062500 98.354 -149.3970
1298.403578 98.449 -149.3938
1307.812346 98.542 -149.4261
1317.289293 98.633 -149.4910
1326.834914 98.723 -149.5854
1336.449707 98.811 -149.7070
1346.134173 98.898 -149.8555
1355.888816 98.986 -150.0333
1365.714145 99.073 -150.2465
1375.610673 99.159 -150.5042
1385.578915 99.244 -150.8174
1395.619391 99.326 -151.1966
1405.732624 99.402 -151.6505
1415.919142 99.470 -152.1844
1426.179476 99.528 -152.8006
1436.514160 99.575 -153.4972
1446.923734 99.609 -154.2696
1457.408740 99.627 -155.1099
1467.969724 99.630 -156.0072
1478.607238 99.616 -156.9485
1489.321836 99.584 -157.9179
1500.114076 99.534 -158.8971
1510.984521 99.464 -159.8652
1521.933737 99.374 -160.7983
1532.962297 99.264 -161.6697
1544.070773 99.134 -162.4501
1555.259747 98.986 -163.1082
1566.529800 98.820 -163.6127
1577.881521 98.640 -163.9342
1589.315501 98.450 -164.0486
1600.832336 98.256 -163.9403
1612.432627 98.064 -163.6056
1624.116978 97.880 -163.0537
1635.886000 97.710 -162.3067
1647.740304 97.559 -161.3979
1659.680509 97.431 -160.3684
1671.707238 97.327 -159.2635
1683.821118 97.249 -158.1283
1696.022780 97.195 -157.0039
1708.312860 97.163 -155.9239
1720.692000 97.149 -154.9125
1733.160843 97.151 -153.9842
1745.720041 97.163 -153.1444
1758.370248 97.183 -152.3904
1771.112124 97.206 -151.7138
1783.946332 97.229 -151.1016
1796.873543 97.251 -150.5391
1809.894429 97.269 -150.0109
1823.009670 97.283 -149.5033
1836.219950 97.293 -149.0050
1849.525956 97.298 -148.5073
1862.928384 97.299 -148.0032
1876.427931 97.296 -147.4863
1890.025301 97.290 -146.9503
1903.721204 97.282 -146.3901
1917.516352 97.273 -145.8023
1931.411466 97.265 -145.1869
1945.407270 97.258 -144.5464
1959.504493 97.252 -143.8856
1973.703870 97.248 -143.2100
1988.006142 97.246 -142.5247
2002.412054 97.244 -141.8345
2016.922357 97.241 -141.1442
2031.537808 97.237 -140.4586
2046.259169 97.231 -139.7833
2061.087206 97.221 -139.1233
2076.022694 97.208 -138.4820
2091.066410 97.189 -137.8602
2106.219139 97.164 -137.2551
2121.481671 97.134 -136.6616
2136.854802 97.100 -136.0734
2152.339333 97.063 -135.4855
2167.936071 97.026 -134.8955
2183.645829 96.991 -134.3056
2199.469427 96.960 -133.7217
2215.407689 96.936 -133.1537
2231.461446 96.920 -132.6131
2247.631536 96.913 -132.1123
2263.918800 96.914 -131.6625
2280.324089 96.923 -131.2730
2296.848258 96.938 -130.9506
2313.492167 96.956 -130.6986
2330.256685 96.977 -130.5173
2347.142685 96.997 -130.4035
2364.151049 97.013 -130.3515
2381.282662 97.025 -130.3531
2398.538418 97.031 -130.3991
2415.919216 97.028 -130.4791
2433.425962 97.015 -130.5808
2451.059570 96.992 -130.6892
2468.820958 96.957 -130.7851
2486.711052 96.910 -130.8444
2504.730786 96.852 -130.8390
2522.881098 96.785 -130.7386
2541.162934 96.712 -130.5146
2559.577248 96.639 -130.1439
2578.125000 96.573 -129.6136
2596.807157 96.521 -128.9249
2615.624692 96.491 -128.0948
2634.578586 96.489 -127.1558
2653.669829 96.520 -126.1507
2672.899414 96.586 -125.1264
2692.268345 96.685 -124.1260
2711.777632 96.814 -123.1836
2731.428290 96.968 -122.3220
2751.221345 97.144 -121.5525
2771.157829 97.336 -120.8776
2791.238781 97.539 -120.2945
2811.465248 97.749 -119.7990
2831.838284 97.964 -119.3877
2852.358952 98.179 -119.0600
2873.028321 98.391 -118.8163
2893.847468 98.596 -118.6570
2914.817480 98.792 -118.5797
2935.939449 98.973 -118.5773
2957.214476 99.139 -118.6376
2978.643672 99.287 -118.7440
3000.228152 99.418 -118.8773
3021.969041 99.532 -119.0186
