* Measurement data measured by REW V5.31.3
* Source: EXCL: Headset (USB-C to 3.5mm Headphone Jack Adapter), MICROPHONE (Master Volume), 0, volume: 0.260
* Format: 256k Log Swept Sine, 1 sweep at -12.0 dBFS with no timing reference
* Dated: Feb 10, 2025 1:44:51 PM
* REW Settings:
*  C-weighting compensation: Off
*  Target level: 75.0 dB
* Note: ; 
* Measurement: Maxwell L8
* Smoothing: 1/6 octave
* Frequency Step: 96 ppo
* Start Frequency: 20.0 Hz
*
* Freq(Hz) SPL(dB) Phase(degrees)
20.141602 98.549 23.9221
20.287556 98.598 23.4055
20.434568 98.661 22.7219
20.582645 98.732 21.8977
20.731796 98.808 20.9606
20.882027 98.883 19.9373
21.033346 98.953 18.8513
21.185763 99.016 17.7225
21.339284 99.069 16.5661
21.493917 99.112 15.3934
21.649671 99.145 14.2122
21.806553 99.169 13.0266
21.964572 99.185 11.8385
22.123737 99.196 10.6473
22.284054 99.203 9.4511
22.445534 99.210 8.2465
22.608183 99.219 7.0297
22.772012 99.232 5.7962
22.937027 99.252 4.5420
23.103238 99.281 3.2637
23.270654 99.321 1.9587
23.439282 99.372 0.6262
23.609133 99.436 -0.7329
23.780215 99.511 -2.1157
23.952536 99.597 -3.5175
24.126106 99.693 -4.9319
24.300934 99.799 -6.3512
24.477028 99.911 -7.7673
24.654399 100.028 -9.1723
24.833055 100.149 -10.5592
25.013005 100.271 -11.9227
25.194260 100.394 -13.2600
25.376828 100.517 -14.5710
25.560719 100.638 -15.8586
25.745942 100.756 -17.1284
25.932508 100.871 -18.3883
26.120426 100.983 -19.6475
26.309705 101.091 -20.9160
26.500356 101.193 -22.2029
26.692388 101.290 -23.5160
26.885812 101.381 -24.8605
27.080638 101.464 -26.2387
27.276876 101.542 -27.6499
27.474535 101.612 -29.0907
27.673627 101.678 -30.5554
27.874161 101.739 -32.0369
28.076149 101.798 -33.5277
28.279600 101.857 -35.0204
28.484526 101.921 -36.5090
28.690937 101.991 -37.9890
28.898843 102.072 -39.4579
29.108256 102.165 -40.9150
29.319186 102.272 -42.3613
29.531645 102.394 -43.7989
29.745644 102.530 -45.2309
29.961193 102.678 -46.6601
30.178304 102.835 -48.0893
30.396989 102.997 -49.5205
30.617258 103.159 -50.9547
30.839123 103.315 -52.3920
31.062596 103.461 -53.8315
31.287688 103.591 -55.2713
31.514412 103.701 -56.7089
31.742778 103.786 -58.1410
31.972800 103.844 -59.5639
32.204488 103.871 -60.9733
32.437855 103.867 -62.3650
32.672913 103.830 -63.7342
32.909674 103.761 -65.0767
33.148151 103.661 -66.3880
33.388356 103.532 -67.6641
33.630302 103.378 -68.9017
33.874001 103.201 -70.0980
34.119466 103.006 -71.2510
34.366710 102.799 -72.3597
34.615745 102.583 -73.4237
34.866585 102.365 -74.4436
35.119243 102.148 -75.4209
35.373731 101.938 -76.3573
35.630064 101.739 -77.2554
35.888254 101.556 -78.1180
36.148315 101.391 -78.9480
36.410261 101.248 -79.7488
36.674104 101.130 -80.5238
36.939860 101.038 -81.2765
37.207542 100.974 -82.0109
37.477163 100.938 -82.7308
37.748738 100.932 -83.4407
38.022281 100.956 -84.1450
38.297806 101.008 -84.8482
38.575327 101.090 -85.5550
38.854860 101.198 -86.2698
39.136419 101.333 -86.9969
39.420017 101.493 -87.7401
39.705671 101.676 -88.5028
39.993395 101.880 -89.2883
40.283203 102.104 -90.0991
40.575112 102.344 -90.9378
40.869136 102.599 -91.8064
41.165290 102.866 -92.7068
41.463591 103.142 -93.6409
41.764053 103.425 -94.6103
42.066693 103.712 -95.6168
42.371525 103.999 -96.6622
42.678567 104.283 -97.7480
42.987834 104.561 -98.8753
43.299341 104.831 -100.0443
43.613106 105.088 -101.2543
43.929145 105.331 -102.5029
44.247473 105.556 -103.7866
44.568109 105.762 -105.1001
44.891068 105.948 -106.4376
45.216367 106.111 -107.7923
45.544023 106.252 -109.1575
45.874054 106.370 -110.5266
46.206476 106.464 -111.8935
46.541307 106.536 -113.2534
46.878565 106.586 -114.6021
47.218266 106.615 -115.9372
47.560429 106.624 -117.2574
47.905072 106.615 -118.5628
48.252212 106.588 -119.8540
48.601867 106.546 -121.1323
48.954056 106.488 -122.3988
49.308798 106.418 -123.6539
49.666109 106.335 -124.8975
50.026010 106.242 -126.1285
50.388520 106.140 -127.3454
50.753656 106.030 -128.5457
51.121437 105.913 -129.7267
51.491884 105.792 -130.8857
51.865016 105.667 -132.0197
52.240851 105.540 -133.1259
52.619410 105.412 -134.2017
53.000712 105.282 -135.2449
53.384777 105.152 -136.2530
53.771625 105.022 -137.2239
54.161276 104.892 -138.1557
54.553751 104.760 -139.0463
54.949070 104.628 -139.8942
55.347254 104.494 -140.6978
55.748323 104.358 -141.4559
56.152298 104.221 -142.1678
56.559201 104.082 -142.8329
56.969052 103.941 -143.4517
57.381873 103.799 -144.0255
57.797686 103.656 -144.5572
58.216512 103.513 -145.0506
58.638373 103.371 -145.5105
59.063291 103.230 -145.9422
59.491288 103.090 -146.3504
59.922386 102.951 -146.7389
60.356608 102.814 -147.1104
60.793977 102.678 -147.4666
61.234515 102.545 -147.8084
61.678246 102.414 -148.1366
62.125192 102.285 -148.4521
62.575377 102.160 -148.7556
63.028824 102.038 -149.0479
63.485557 101.921 -149.3298
63.945599 101.808 -149.6021
64.408975 101.700 -149.8653
64.875709 101.596 -150.1200
65.345825 101.498 -150.3668
65.819348 101.406 -150.6064
66.296302 101.319 -150.8395
66.776713 101.237 -151.0671
67.260604 101.161 -151.2903
67.748002 101.090 -151.5103
68.238932 101.025 -151.7283
68.733420 100.964 -151.9453
69.231490 100.909 -152.1623
69.733170 100.858 -152.3804
70.238485 100.812 -152.6004
70.747463 100.770 -152.8231
71.260128 100.733 -153.0490
71.776508 100.698 -153.2785
72.296630 100.667 -153.5118
72.820521 100.639 -153.7490
73.348209 100.614 -153.9900
73.879720 100.590 -154.2346
74.415083 100.569 -154.4827
74.954326 100.549 -154.7342
75.497475 100.530 -154.9890
76.044561 100.512 -155.2474
76.595612 100.493 -155.5096
77.150655 100.475 -155.7758
77.709720 100.455 -156.0467
78.272837 100.434 -156.3230
78.840034 100.411 -156.6053
79.411342 100.385 -156.8944
79.986789 100.356 -157.1906
80.566406 100.323 -157.4944
81.150224 100.287 -157.8058
81.738272 100.248 -158.1246
82.330581 100.205 -158.4504
82.927182 100.160 -158.7824
83.528107 100.113 -159.1199
84.133386 100.067 -159.4618
84.743051 100.023 -159.8070
85.357134 99.984 -160.1543
85.975667 99.952 -160.5024
86.598682 99.932 -160.8505
87.226212 99.925 -161.1976
87.858289 99.936 -161.5428
88.494946 99.967 -161.8855
89.136217 100.020 -162.2246
89.782135 100.095 -162.5595
90.432733 100.193 -162.8892
91.088046 100.312 -163.2125
91.748108 100.448 -163.5281
92.412952 100.597 -163.8348
93.082615 100.754 -164.1310
93.757130 100.913 -164.4155
94.436533 101.069 -164.6875
95.120859 101.218 -164.9464
95.810144 101.356 -165.1925
96.504423 101.478 -165.4262
97.203734 101.584 -165.6482
97.908112 101.673 -165.8594
98.617595 101.745 -166.0602
99.332219 101.800 -166.2511
100.052021 101.841 -166.4324
100.777039 101.869 -166.6043
101.507311 101.887 -166.7667
102.242875 101.897 -166.9194
102.983769 101.901 -167.0625
103.730032 101.900 -167.1957
104.481702 101.894 -167.3190
105.238820 101.884 -167.4325
106.001424 101.870 -167.5365
106.769554 101.850 -167.6318
107.543250 101.822 -167.7191
108.322553 101.786 -167.7994
109.107503 101.740 -167.8739
109.898141 101.682 -167.9434
110.694508 101.613 -168.0089
111.496646 101.531 -168.0713
112.304596 101.438 -168.1313
113.118402 101.334 -168.1895
113.938104 101.221 -168.2467
114.763747 101.100 -168.3034
115.595372 100.975 -168.3603
116.433024 100.847 -168.4185
117.276746 100.718 -168.4790
118.126581 100.590 -168.5429
118.982575 100.464 -168.6113
119.844772 100.342 -168.6848
120.713217 100.223 -168.7639
121.587954 100.109 -168.8486
122.469031 99.997 -168.9388
123.356492 99.888 -169.0342
124.250384 99.779 -169.1351
125.150753 99.670 -169.2423
126.057647 99.558 -169.3566
126.971113 99.442 -169.4793
127.891198 99.321 -169.6117
128.817950 99.193 -169.7549
129.751418 99.059 -169.9100
130.691651 98.917 -170.0776
131.638696 98.769 -170.2575
132.592604 98.615 -170.4494
133.553425 98.458 -170.6522
134.521208 98.299 -170.8647
135.496004 98.141 -171.0856
136.477864 97.987 -171.3132
137.466839 97.842 -171.5459
138.462981 97.708 -171.7816
139.466340 97.587 -172.0184
140.476971 97.482 -172.2537
141.494925 97.393 -172.4854
142.520256 97.321 -172.7108
143.553016 97.262 -172.9277
144.593260 97.216 -173.1338
145.641043 97.177 -173.3270
146.696418 97.143 -173.5054
147.759441 97.109 -173.6668
148.830166 97.071 -173.8096
149.908651 97.028 -173.9319
150.994951 96.977 -174.0318
152.089123 96.917 -174.1075
153.191223 96.847 -174.1568
154.301310 96.769 -174.1778
155.419441 96.685 -174.1685
156.545674 96.595 -174.1270
157.680069 96.502 -174.0519
158.822683 96.408 -173.9424
159.973578 96.314 -173.7981
161.132813 96.223 -173.6190
162.300447 96.135 -173.4056
163.476543 96.052 -173.1588
164.661162 95.974 -172.8800
165.854364 95.902 -172.5708
167.056213 95.836 -172.2333
168.266772 95.778 -171.8697
169.486102 95.727 -171.4827
170.714268 95.685 -171.0752
171.951334 95.651 -170.6501
173.197364 95.627 -170.2102
174.452424 95.612 -169.7585
175.716578 95.606 -169.2976
176.989893 95.608 -168.8304
178.272434 95.618 -168.3593
179.564270 95.635 -167.8869
180.865467 95.656 -167.4158
182.176092 95.681 -166.9482
183.496216 95.708 -166.4864
184.825905 95.737 -166.0323
186.165229 95.767 -165.5875
187.514259 95.798 -165.1537
188.873065 95.828 -164.7324
190.241717 95.860 -164.3249
191.620287 95.891 -163.9326
193.008847 95.924 -163.5567
194.407468 95.959 -163.1979
195.816225 95.994 -162.8568
197.235190 96.030 -162.5336
198.664438 96.066 -162.2281
200.104042 96.103 -161.9399
201.554078 96.139 -161.6680
203.014622 96.172 -161.4111
204.485750 96.204 -161.1675
205.967538 96.232 -160.9357
207.460064 96.256 -160.7140
208.963405 96.277 -160.5010
210.477640 96.294 -160.2952
212.002848 96.306 -160.0952
213.539108 96.315 -159.8997
215.086500 96.321 -159.7075
216.645105 96.324 -159.5171
218.215005 96.325 -159.3275
219.796281 96.322 -159.1373
221.389015 96.317 -158.9454
222.993292 96.309 -158.7509
224.609193 96.297 -158.5527
226.236804 96.281 -158.3497
227.876209 96.260 -158.1411
229.527494 96.234 -157.9260
231.190745 96.203 -157.7036
232.866048 96.167 -157.4735
234.553491 96.125 -157.2350
236.253163 96.080 -156.9881
237.965150 96.032 -156.7331
239.689544 95.982 -156.4706
241.426433 95.932 -156.2014
243.175909 95.882 -155.9266
244.938062 95.833 -155.6473
246.712984 95.787 -155.3643
248.500768 95.745 -155.0781
250.301507 95.707 -154.7891
252.115295 95.674 -154.4975
253.942226 95.647 -154.2033
255.782396 95.627 -153.9067
257.635901 95.614 -153.6080
259.502837 95.609 -153.3081
261.383301 95.613 -153.0082
263.277392 95.626 -152.7102
265.185209 95.648 -152.4163
267.106850 95.679 -152.1292
269.042417 95.719 -151.8520
270.992009 95.769 -151.5873
272.955729 95.826 -151.3379
274.933678 95.891 -151.1060
276.925961 95.963 -150.8937
278.932681 96.040 -150.7028
280.953942 96.123 -150.5347
282.989850 96.210 -150.3908
285.040511 96.302 -150.2724
287.106032 96.399 -150.1804
289.186521 96.500 -150.1155
291.282086 96.606 -150.0785
293.392836 96.717 -150.0695
295.518881 96.833 -150.0887
297.660333 96.952 -150.1357
299.817302 97.075 -150.2095
301.989902 97.200 -150.3090
304.178245 97.324 -150.4324
306.382446 97.447 -150.5777
308.602620 97.566 -150.7424
310.838882 97.679 -150.9240
313.091348 97.784 -151.1196
315.360137 97.879 -151.3260
317.645367 97.963 -151.5403
319.947156 98.036 -151.7594
322.265625 98.095 -151.9798
324.600895 98.141 -152.1983
326.953086 98.174 -152.4115
329.322323 98.193 -152.6160
331.708729 98.198 -152.8085
334.112427 98.190 -152.9855
336.533543 98.168 -153.1434
338.972204 98.135 -153.2793
341.428536 98.091 -153.3902
343.902668 98.038 -153.4740
346.394729 97.978 -153.5293
348.904848 97.912 -153.5553
351.433156 97.844 -153.5524
353.979786 97.775 -153.5220
356.544869 97.710 -153.4666
359.128540 97.652 -153.3893
361.730934 97.603 -153.2940
364.352185 97.567 -153.1848
366.992431 97.547 -153.0657
369.651810 97.545 -152.9403
372.330459 97.564 -152.8122
375.028519 97.604 -152.6843
377.746130 97.665 -152.5592
380.483434 97.746 -152.4391
383.240574 97.846 -152.3259
386.017693 97.961 -152.2212
388.814937 98.089 -152.1262
391.632450 98.226 -152.0423
394.470380 98.370 -151.9704
397.328875 98.517 -151.9115
400.208084 98.666 -151.8663
403.108157 98.814 -151.8356
406.029245 98.960 -151.8201
408.971500 99.104 -151.8201
411.935076 99.245 -151.8362
414.920127 99.382 -151.8685
417.926810 99.518 -151.9171
420.955280 99.651 -151.9823
424.005695 99.784 -152.0639
427.078215 99.915 -152.1616
430.173000 100.046 -152.2752
433.290211 100.177 -152.4039
436.430010 100.307 -152.5470
439.592562 100.435 -152.7038
442.778031 100.561 -152.8734
445.986583 100.683 -153.0551
449.218386 100.799 -153.2483
452.473607 100.907 -153.4525
455.752418 101.007 -153.6672
459.054987 101.097 -153.8922
462.381489 101.176 -154.1270
465.732096 101.243 -154.3715
469.106983 101.298 -154.6256
472.506325 101.342 -154.8890
475.930301 101.374 -155.1619
479.379088 101.396 -155.4440
482.852867 101.409 -155.7353
486.351817 101.414 -156.0358
489.876123 101.412 -156.3452
493.425968 101.403 -156.6637
497.001536 101.389 -156.9909
500.603014 101.369 -157.3270
504.230589 101.344 -157.6720
507.884452 101.315 -158.0260
511.564792 101.280 -158.3891
515.271802 101.240 -158.7614
519.005673 101.196 -159.1426
522.766602 101.147 -159.5323
526.554785 101.096 -159.9301
530.370418 101.042 -160.3347
534.213700 100.988 -160.7450
538.084833 100.935 -161.1594
541.984018 100.885 -161.5758
545.911457 100.839 -161.9918
549.867357 100.797 -162.4047
553.851922 100.760 -162.8114
557.865362 100.727 -163.2086
561.907884 100.697 -163.5929
565.979700 100.669 -163.9608
570.081022 100.641 -164.3092
574.212064 100.612 -164.6351
578.373042 100.579 -164.9361
582.564171 100.543 -165.2105
586.785671 100.501 -165.4577
591.037762 100.453 -165.6777
595.320665 100.399 -165.8718
599.634604 100.338 -166.0420
603.979804 100.271 -166.1910
608.356491 100.197 -166.3224
612.764893 100.118 -166.4400
617.205240 100.035 -166.5477
621.677763 99.947 -166.6495
626.182696 99.857 -166.7493
630.720274 99.766 -166.8503
635.290733 99.675 -166.9555
639.894312 99.584 -167.0669
644.531250 99.497 -167.1860
649.201789 99.413 -167.3132
653.906173 99.334 -167.4481
658.644647 99.259 -167.5897
663.417457 99.188 -167.7360
668.224854 99.120 -167.8842
673.067086 99.054 -168.0311
677.944408 98.988 -168.1722
682.857073 98.920 -168.3027
687.805336 98.848 -168.4170
692.789457 98.771 -168.5090
697.809695 98.687 -168.5722
702.866312 98.595 -168.5996
707.959571 98.494 -168.5845
713.089738 98.385 -168.5200
718.257080 98.268 -168.3999
723.461867 98.143 -168.2183
728.704370 98.011 -167.9703
733.984862 97.874 -167.6520
739.303619 97.735 -167.2611
744.660918 97.593 -166.7963
750.057038 97.453 -166.2583
755.492260 97.317 -165.6499
760.966869 97.185 -164.9755
766.481148 97.059 -164.2421
772.035387 96.941 -163.4583
777.629873 96.831 -162.6349
783.264900 96.730 -161.7834
788.940760 96.636 -160.9165
794.657750 96.549 -160.0464
800.416168 96.468 -159.1845
806.216313 96.390 -158.3406
812.058489 96.316 -157.5226
817.943000 96.242 -156.7361
823.870152 96.169 -155.9844
829.840255 96.094 -155.2683
835.853619 96.018 -154.5868
841.910559 95.940 -153.9366
848.011390 95.860 -153.3133
854.156430 95.779 -152.7110
860.346000 95.697 -152.1232
866.580422 95.615 -151.5432
872.860020 95.534 -150.9647
879.185124 95.456 -150.3822
885.556062 95.383 -149.7922
891.973166 95.317 -149.1928
898.436771 95.260 -148.5842
904.947215 95.213 -147.9684
911.504835 95.180 -147.3489
918.109975 95.162 -146.7306
924.762978 95.160 -146.1189
931.464192 95.174 -145.5203
938.213966 95.205 -144.9412
945.012651 95.253 -144.3884
951.860602 95.317 -143.8685
958.758176 95.395 -143.3872
965.705733 95.485 -142.9497
972.703635 95.586 -142.5599
979.752246 95.696 -142.2206
986.851935 95.813 -141.9332
994.003071 95.935 -141.6981
1001.206027 96.060 -141.5147
1008.461179 96.189 -141.3817
1015.768904 96.320 -141.2970
1023.129584 96.454 -141.2585
1030.543603 96.590 -141.2640
1038.011347 96.729 -141.3113
1045.533205 96.870 -141.3984
1053.109569 97.013 -141.5233
1060.740836 97.158 -141.6843
1068.427401 97.304 -141.8793
1076.169666 97.450 -142.1059
1083.968035 97.593 -142.3613
1091.822915 97.731 -142.6418
1099.734713 97.862 -142.9424
1107.703844 97.983 -143.2569
1115.730723 98.092 -143.5768
1123.815768 98.187 -143.8917
1131.959400 98.266 -144.1883
1140.162045 98.328 -144.4509
1148.424129 98.373 -144.6616
1156.746083 98.403 -144.8013
1165.128342 98.420 -144.8513
1173.571343 98.428 -144.7956
1182.075524 98.431 -144.6227
1190.641331 98.435 -144.3287
1199.269209 98.444 -143.9183
1207.959608 98.465 -143.4051
1216.712981 98.500 -142.8105
1225.529785 98.552 -142.1610
1234.410479 98.622 -141.4856
1243.355526 98.708 -140.8121
1252.365393 98.809 -140.1656
1261.440549 98.922 -139.5659
1270.581467 99.044 -139.0278
1279.788624 99.173 -138.5605
1289.062500 99.305 -138.1687
1298.403578 99.440 -137.8537
1307.812346 99.574 -137.6142
1317.289293 99.707 -137.4478
1326.834914 99.838 -137.3514
1336.449707 99.967 -137.3221
1346.134173 100.091 -137.3572
1355.888816 100.211 -137.4540
1365.714145 100.326 -137.6100
1375.610673 100.434 -137.8222
1385.578915 100.535 -138.0870
1395.619391 100.626 -138.4000
1405.732624 100.709 -138.7556
1415.919142 100.781 -139.1473
1426.179476 100.843 -139.5672
1436.514160 100.895 -140.0069
1446.923734 100.939 -140.4577
1457.408740 100.974 -140.9117
1467.969724 101.002 -141.3622
1478.607238 101.026 -141.8049
1489.321836 101.045 -142.2387
1500.114076 101.062 -142.6653
1510.984521 101.077 -143.0887
1521.933737 101.089 -143.5134
1532.962297 101.098 -143.9422
1544.070773 101.102 -144.3751
1555.259747 101.099 -144.8082
1566.529800 101.088 -145.2336
1577.881521 101.068 -145.6398
1589.315501 101.038 -146.0129
1600.832336 100.997 -146.3373
1612.432627 100.948 -146.5977
1624.116978 100.891 -146.7807
1635.886000 100.829 -146.8760
1647.740304 100.765 -146.8774
1659.680509 100.700 -146.7828
1671.707238 100.638 -146.5941
1683.821118 100.582 -146.3166
1696.022780 100.533 -145.9579
1708.312860 100.495 -145.5278
1720.692000 100.468 -145.0383
1733.160843 100.455 -144.5036
1745.720041 100.456 -143.9408
1758.370248 100.471 -143.3701
1771.112124 100.500 -142.8137
1783.946332 100.541 -142.2941
1796.873543 100.590 -141.8312
1809.894429 100.646 -141.4401
1823.009670 100.703 -141.1289
1836.219950 100.758 -140.8987
1849.525956 100.808 -140.7437
1862.928384 100.851 -140.6528
1876.427931 100.885 -140.6110
1890.025301 100.909 -140.6008
1903.721204 100.922 -140.6044
1917.516352 100.925 -140.6043
1931.411466 100.920 -140.5844
1945.407270 100.906 -140.5307
1959.504493 100.885 -140.4322
1973.703870 100.858 -140.2813
1988.006142 100.827 -140.0747
2002.412054 100.793 -139.8139
2016.922357 100.757 -139.5044
2031.537808 100.718 -139.1553
2046.259169 100.678 -138.7770
2061.087206 100.636 -138.3798
2076.022694 100.591 -137.9724
2091.066410 100.543 -137.5618
2106.219139 100.493 -137.1541
2121.481671 100.441 -136.7545
2136.854802 100.387 -136.3687
2152.339333 100.334 -136.0019
2167.936071 100.280 -135.6589
2183.645829 100.228 -135.3430
2199.469427 100.177 -135.0560
2215.407689 100.128 -134.7976
2231.461446 100.081 -134.5668
2247.631536 100.038 -134.3618
2263.918800 99.997 -134.1814
2280.324089 99.959 -134.0255
2296.848258 99.925 -133.8954
2313.492167 99.894 -133.7942
2330.256685 99.866 -133.7265
2347.142685 99.840 -133.6980
2364.151049 99.814 -133.7146
2381.282662 99.787 -133.7804
2398.538418 99.757 -133.8966
2415.919216 99.720 -134.0594
2433.425962 99.673 -134.2594
2451.059570 99.615 -134.4802
2468.820958 99.543 -134.6990
2486.711052 99.455 -134.8854
2504.730786 99.350 -135.0020
2522.881098 99.230 -135.0047
2541.162934 99.097 -134.8452
2559.577248 98.956 -134.4749
2578.125000 98.815 -133.8513
2596.807157 98.685 -132.9467
2615.624692 98.576 -131.7576
2634.578586 98.502 -130.3113
2653.669829 98.474 -128.6677
2672.899414 98.497 -126.9114
2692.268345 98.573 -125.1375
2711.777632 98.700 -123.4339
2731.428290 98.871 -121.8683
2751.221345 99.076 -120.4817
2771.157829 99.307 -119.2898
2791.238781 99.554 -118.2890
2811.465248 99.810 -117.4645
2831.838284 100.071 -116.7968
2852.358952 100.330 -116.2665
2873.028321 100.586 -115.8576
2893.847468 100.835 -115.5571
2914.817480 101.074 -115.3549
2935.939449 101.301 -115.2418
2957.214476 101.514 -115.2083
