* Measurement data measured by REW V5.31.3
* Source: EXCL: Headset (USB-C to 3.5mm Headphone Jack Adapter), MICROPHONE (Master Volume), 0, volume: 0.260
* Format: 256k Log Swept Sine, 1 sweep at -12.0 dBFS with no timing reference
* Dated: Feb 10, 2025 1:54:20 PM
* REW Settings:
*  C-weighting compensation: Off
*  Target level: 75.0 dB
* Note: ; 
* Measurement: Maxwell (WC FreeZe) R1
* Smoothing: 1/6 octave
* Frequency Step: 96 ppo
* Start Frequency: 20.0 Hz
*
* Freq(Hz) SPL(dB) Phase(degrees)
20.141602 98.064 27.0521
20.287556 98.124 26.6968
20.434568 98.202 26.2218
20.582645 98.293 25.6388
20.731796 98.390 24.9590
20.882027 98.489 24.1928
21.033346 98.585 23.3491
21.185763 98.674 22.4352
21.339284 98.753 21.4576
21.493917 98.821 20.4218
21.649671 98.876 19.3332
21.806553 98.920 18.1968
21.964572 98.952 17.0181
22.123737 98.976 15.8017
22.284054 98.993 14.5522
22.445534 99.006 13.2736
22.608183 99.019 11.9688
22.772012 99.034 10.6398
22.937027 99.056 9.2879
23.103238 99.085 7.9135
23.270654 99.125 6.5165
23.439282 99.177 5.0969
23.609133 99.242 3.6552
23.780215 99.319 2.1927
23.952536 99.409 0.7119
24.126106 99.509 -0.7837
24.300934 99.618 -2.2895
24.477028 99.734 -3.8004
24.654399 99.855 -5.3109
24.833055 99.979 -6.8163
25.013005 100.105 -8.3125
25.194260 100.232 -9.7973
25.376828 100.357 -11.2699
25.560719 100.481 -12.7321
25.745942 100.602 -14.1869
25.932508 100.720 -15.6392
26.120426 100.835 -17.0947
26.309705 100.945 -18.5594
26.500356 101.051 -20.0387
26.692388 101.151 -21.5369
26.885812 101.246 -23.0568
27.080638 101.333 -24.5991
27.276876 101.415 -26.1628
27.474535 101.490 -27.7453
27.673627 101.559 -29.3428
27.874161 101.624 -30.9507
28.076149 101.685 -32.5642
28.279600 101.747 -34.1790
28.484526 101.810 -35.7909
28.690937 101.879 -37.3968
28.898843 101.956 -38.9945
29.108256 102.044 -40.5824
29.319186 102.144 -42.1599
29.531645 102.258 -43.7267
29.745644 102.386 -45.2832
29.961193 102.527 -46.8302
30.178304 102.677 -48.3685
30.396989 102.834 -49.8988
30.617258 102.993 -51.4219
30.839123 103.149 -52.9379
31.062596 103.296 -54.4467
31.287688 103.428 -55.9471
31.514412 103.541 -57.4373
31.742778 103.630 -58.9145
31.972800 103.691 -60.3756
32.204488 103.721 -61.8174
32.437855 103.720 -63.2368
32.672913 103.685 -64.6320
32.909674 103.619 -66.0020
33.148151 103.522 -67.3477
33.388356 103.397 -68.6715
33.630302 103.248 -69.9771
33.874001 103.079 -71.2686
34.119466 102.893 -72.5504
34.366710 102.695 -73.8259
34.615745 102.490 -75.0970
34.866585 102.282 -76.3634
35.119243 102.075 -77.6236
35.373731 101.873 -78.8739
35.630064 101.679 -80.1101
35.888254 101.498 -81.3280
36.148315 101.332 -82.5238
36.410261 101.184 -83.6947
36.674104 101.056 -84.8393
36.939860 100.948 -85.9575
37.207542 100.863 -87.0500
37.477163 100.801 -88.1179
37.748738 100.762 -89.1630
38.022281 100.745 -90.1869
38.297806 100.750 -91.1911
38.575327 100.779 -92.1773
38.854860 100.828 -93.1472
39.136419 100.900 -94.1025
39.420017 100.992 -95.0451
39.705671 101.104 -95.9769
39.993395 101.236 -96.8997
40.283203 101.385 -97.8157
40.575112 101.550 -98.7267
40.869136 101.731 -99.6353
41.165290 101.924 -100.5439
41.463591 102.129 -101.4554
41.764053 102.344 -102.3730
42.066693 102.566 -103.2998
42.371525 102.793 -104.2390
42.678567 103.023 -105.1935
42.987834 103.253 -106.1660
43.299341 103.481 -107.1582
43.613106 103.704 -108.1713
43.929145 103.919 -109.2051
44.247473 104.122 -110.2584
44.568109 104.312 -111.3289
44.891068 104.485 -112.4137
45.216367 104.641 -113.5098
45.544023 104.776 -114.6148
45.874054 104.891 -115.7277
46.206476 104.985 -116.8483
46.541307 105.057 -117.9778
46.878565 105.107 -119.1173
47.218266 105.136 -120.2676
47.560429 105.142 -121.4282
47.905072 105.128 -122.5970
48.252212 105.093 -123.7703
48.601867 105.039 -124.9434
48.954056 104.968 -126.1114
49.308798 104.881 -127.2691
49.666109 104.780 -128.4121
50.026010 104.667 -129.5365
50.388520 104.544 -130.6392
50.753656 104.413 -131.7178
51.121437 104.275 -132.7706
51.491884 104.133 -133.7963
51.865016 103.987 -134.7943
52.240851 103.841 -135.7641
52.619410 103.695 -136.7050
53.000712 103.550 -137.6162
53.384777 103.407 -138.4967
53.771625 103.266 -139.3453
54.161276 103.128 -140.1604
54.553751 102.992 -140.9411
54.949070 102.857 -141.6865
55.347254 102.724 -142.3963
55.748323 102.590 -143.0705
56.152298 102.456 -143.7096
56.559201 102.321 -144.3147
56.969052 102.185 -144.8870
57.381873 102.048 -145.4280
57.797686 101.909 -145.9391
58.216512 101.769 -146.4221
58.638373 101.627 -146.8785
59.063291 101.485 -147.3096
59.491288 101.343 -147.7165
59.922386 101.200 -148.1003
60.356608 101.057 -148.4614
60.793977 100.915 -148.8003
61.234515 100.774 -149.1172
61.678246 100.634 -149.4129
62.125192 100.496 -149.6884
62.575377 100.360 -149.9453
63.028824 100.227 -150.1854
63.485557 100.098 -150.4109
63.945599 99.972 -150.6236
64.408975 99.852 -150.8251
64.875709 99.736 -151.0167
65.345825 99.625 -151.1995
65.819348 99.520 -151.3742
66.296302 99.421 -151.5417
66.776713 99.328 -151.7026
67.260604 99.241 -151.8573
67.748002 99.160 -152.0062
68.238932 99.085 -152.1498
68.733420 99.015 -152.2886
69.231490 98.950 -152.4231
69.733170 98.891 -152.5543
70.238485 98.836 -152.6833
70.747463 98.786 -152.8113
71.260128 98.740 -152.9397
71.776508 98.698 -153.0697
72.296630 98.659 -153.2025
72.820521 98.623 -153.3389
73.348209 98.590 -153.4794
73.879720 98.560 -153.6246
74.415083 98.533 -153.7746
74.954326 98.507 -153.9300
75.497475 98.482 -154.0912
76.044561 98.459 -154.2586
76.595612 98.436 -154.4326
77.150655 98.413 -154.6133
77.709720 98.389 -154.8007
78.272837 98.364 -154.9943
78.840034 98.337 -155.1939
79.411342 98.307 -155.3990
79.986789 98.274 -155.6094
80.566406 98.238 -155.8247
81.150224 98.198 -156.0449
81.738272 98.154 -156.2698
82.330581 98.107 -156.4996
82.927182 98.058 -156.7342
83.528107 98.007 -156.9739
84.133386 97.957 -157.2183
84.743051 97.909 -157.4670
85.357134 97.867 -157.7194
85.975667 97.832 -157.9744
86.598682 97.809 -158.2309
87.226212 97.802 -158.4876
87.858289 97.812 -158.7437
88.494946 97.843 -158.9985
89.136217 97.897 -159.2518
89.782135 97.974 -159.5034
90.432733 98.074 -159.7536
91.088046 98.194 -160.0024
91.748108 98.332 -160.2493
92.412952 98.482 -160.4938
93.082615 98.641 -160.7348
93.757130 98.801 -160.9708
94.436533 98.959 -161.2000
95.120859 99.108 -161.4210
95.810144 99.245 -161.6323
96.504423 99.367 -161.8332
97.203734 99.471 -162.0231
97.908112 99.557 -162.2019
98.617595 99.625 -162.3699
99.332219 99.676 -162.5274
100.052021 99.711 -162.6744
100.777039 99.733 -162.8111
101.507311 99.745 -162.9375
102.242875 99.748 -163.0532
102.983769 99.744 -163.1581
103.730032 99.735 -163.2518
104.481702 99.722 -163.3340
105.238820 99.705 -163.4045
106.001424 99.683 -163.4632
106.769554 99.655 -163.5103
107.543250 99.620 -163.5461
108.322553 99.576 -163.5715
109.107503 99.521 -163.5880
109.898141 99.455 -163.5970
110.694508 99.377 -163.6004
111.496646 99.286 -163.5997
112.304596 99.184 -163.5966
113.118402 99.070 -163.5926
113.938104 98.947 -163.5888
114.763747 98.816 -163.5859
115.595372 98.679 -163.5847
116.433024 98.540 -163.5853
117.276746 98.398 -163.5880
118.126581 98.258 -163.5929
118.982575 98.119 -163.6001
119.844772 97.983 -163.6099
120.713217 97.851 -163.6223
121.587954 97.721 -163.6374
122.469031 97.594 -163.6552
123.356492 97.468 -163.6759
124.250384 97.343 -163.6996
125.150753 97.216 -163.7268
126.057647 97.085 -163.7577
126.971113 96.951 -163.7929
127.891198 96.810 -163.8330
128.817950 96.663 -163.8787
129.751418 96.509 -163.9303
130.691651 96.347 -163.9877
131.638696 96.178 -164.0507
132.592604 96.004 -164.1180
133.553425 95.825 -164.1883
134.521208 95.645 -164.2600
135.496004 95.466 -164.3314
136.477864 95.291 -164.4007
137.466839 95.124 -164.4666
138.462981 94.968 -164.5277
139.466340 94.825 -164.5826
140.476971 94.698 -164.6300
141.494925 94.588 -164.6686
142.520256 94.493 -164.6969
143.553016 94.414 -164.7133
144.593260 94.346 -164.7162
145.641043 94.288 -164.7038
146.696418 94.235 -164.6744
147.759441 94.182 -164.6261
148.830166 94.128 -164.5572
149.908651 94.069 -164.4655
150.994951 94.002 -164.3492
152.089123 93.927 -164.2063
153.191223 93.844 -164.0348
154.301310 93.752 -163.8327
155.419441 93.654 -163.5979
156.545674 93.551 -163.3286
157.680069 93.445 -163.0229
158.822683 93.337 -162.6793
159.973578 93.229 -162.2967
161.132813 93.123 -161.8740
162.300447 93.021 -161.4106
163.476543 92.922 -160.9064
164.661162 92.829 -160.3618
165.854364 92.741 -159.7778
167.056213 92.660 -159.1560
168.266772 92.586 -158.4984
169.486102 92.520 -157.8074
170.714268 92.464 -157.0856
171.951334 92.417 -156.3361
173.197364 92.380 -155.5621
174.452424 92.354 -154.7670
175.716578 92.338 -153.9545
176.989893 92.332 -153.1282
178.272434 92.335 -152.2916
179.564270 92.346 -151.4480
180.865467 92.363 -150.6004
182.176092 92.386 -149.7516
183.496216 92.413 -148.9043
184.825905 92.443 -148.0609
186.165229 92.475 -147.2241
187.514259 92.509 -146.3962
188.873065 92.545 -145.5796
190.241717 92.583 -144.7764
191.620287 92.624 -143.9884
193.008847 92.667 -143.2168
194.407468 92.712 -142.4621
195.816225 92.760 -141.7246
197.235190 92.810 -141.0040
198.664438 92.862 -140.2998
200.104042 92.915 -139.6116
201.554078 92.969 -138.9389
203.014622 93.022 -138.2818
204.485750 93.074 -137.6400
205.967538 93.124 -137.0135
207.460064 93.172 -136.4022
208.963405 93.218 -135.8056
210.477640 93.261 -135.2230
212.002848 93.302 -134.6536
213.539108 93.341 -134.0964
215.086500 93.378 -133.5500
216.645105 93.413 -133.0136
218.215005 93.446 -132.4859
219.796281 93.478 -131.9660
221.389015 93.507 -131.4530
222.993292 93.534 -130.9460
224.609193 93.558 -130.4443
226.236804 93.579 -129.9475
227.876209 93.595 -129.4552
229.527494 93.607 -128.9671
231.190745 93.615 -128.4828
232.866048 93.618 -128.0013
234.553491 93.617 -127.5218
236.253163 93.613 -127.0437
237.965150 93.607 -126.5666
239.689544 93.600 -126.0906
241.426433 93.593 -125.6167
243.175909 93.587 -125.1457
244.938062 93.583 -124.6790
246.712984 93.582 -124.2175
248.500768 93.584 -123.7619
250.301507 93.591 -123.3125
252.115295 93.601 -122.8692
253.942226 93.617 -122.4315
255.782396 93.639 -121.9992
257.635901 93.666 -121.5718
259.502837 93.701 -121.1496
261.383301 93.742 -120.7330
263.277392 93.790 -120.3231
265.185209 93.846 -119.9210
267.106850 93.910 -119.5285
269.042417 93.981 -119.1472
270.992009 94.059 -118.7786
272.955729 94.143 -118.4238
274.933678 94.233 -118.0836
276.925961 94.328 -117.7583
278.932681 94.427 -117.4479
280.953942 94.530 -117.1526
282.989850 94.637 -116.8719
285.040511 94.748 -116.6058
287.106032 94.863 -116.3536
289.186521 94.983 -116.1151
291.282086 95.108 -115.8899
293.392836 95.238 -115.6777
295.518881 95.375 -115.4785
297.660333 95.517 -115.2921
299.817302 95.664 -115.1188
301.989902 95.815 -114.9585
304.178245 95.968 -114.8113
306.382446 96.122 -114.6772
308.602620 96.275 -114.5560
310.838882 96.425 -114.4477
313.091348 96.570 -114.3520
315.360137 96.709 -114.2690
317.645367 96.840 -114.1986
319.947156 96.962 -114.1408
322.265625 97.075 -114.0957
324.600895 97.178 -114.0634
326.953086 97.271 -114.0440
329.322323 97.353 -114.0378
331.708729 97.424 -114.0447
334.112427 97.484 -114.0650
336.533543 97.533 -114.0988
338.972204 97.572 -114.1463
341.428536 97.602 -114.2076
343.902668 97.623 -114.2829
346.394729 97.637 -114.3727
348.904848 97.645 -114.4770
351.433156 97.649 -114.5963
353.979786 97.652 -114.7305
356.544869 97.656 -114.8799
359.128540 97.662 -115.0445
361.730934 97.675 -115.2242
364.352185 97.696 -115.4190
366.992431 97.727 -115.6286
369.651810 97.771 -115.8526
372.330459 97.828 -116.0906
375.028519 97.899 -116.3415
377.746130 97.983 -116.6041
380.483434 98.080 -116.8767
383.240574 98.187 -117.1572
386.017693 98.302 -117.4432
388.814937 98.423 -117.7320
391.632450 98.546 -118.0207
394.470380 98.669 -118.3062
397.328875 98.789 -118.5854
400.208084 98.906 -118.8549
403.108157 99.017 -119.1115
406.029245 99.122 -119.3520
408.971500 99.220 -119.5734
411.935076 99.312 -119.7729
414.920127 99.399 -119.9484
417.926810 99.481 -120.0983
420.955280 99.560 -120.2216
424.005695 99.638 -120.3186
427.078215 99.716 -120.3900
430.173000 99.794 -120.4375
433.290211 99.874 -120.4637
436.430010 99.956 -120.4716
439.592562 100.039 -120.4647
442.778031 100.122 -120.4469
445.986583 100.205 -120.4221
449.218386 100.286 -120.3943
452.473607 100.362 -120.3670
455.752418 100.433 -120.3437
459.054987 100.496 -120.3271
462.381489 100.550 -120.3195
465.732096 100.594 -120.3225
469.106983 100.628 -120.3371
472.506325 100.651 -120.3638
475.930301 100.664 -120.4025
479.379088 100.666 -120.4526
482.852867 100.659 -120.5133
486.351817 100.644 -120.5834
489.876123 100.621 -120.6615
493.425968 100.591 -120.7463
497.001536 100.554 -120.8364
500.603014 100.512 -120.9304
504.230589 100.464 -121.0269
507.884452 100.410 -121.1248
511.564792 100.351 -121.2230
515.271802 100.287 -121.3204
519.005673 100.217 -121.4161
522.766602 100.143 -121.5092
526.554785 100.066 -121.5986
530.370418 99.987 -121.6833
534.213700 99.909 -121.7620
538.084833 99.832 -121.8335
541.984018 99.758 -121.8965
545.911457 99.690 -121.9498
549.867357 99.628 -121.9917
553.851922 99.573 -122.0209
557.865362 99.523 -122.0358
561.907884 99.478 -122.0349
565.979700 99.437 -122.0165
570.081022 99.398 -121.9791
574.212064 99.358 -121.9214
578.373042 99.317 -121.8420
582.564171 99.273 -121.7397
586.785671 99.223 -121.6138
591.037762 99.168 -121.4637
595.320665 99.106 -121.2890
599.634604 99.036 -121.0898
603.979804 98.960 -120.8666
608.356491 98.876 -120.6201
612.764893 98.786 -120.3511
617.205240 98.691 -120.0610
621.677763 98.591 -119.7514
626.182696 98.489 -119.4243
630.720274 98.386 -119.0819
635.290733 98.284 -118.7269
639.894312 98.184 -118.3620
644.531250 98.090 -117.9902
649.201789 98.003 -117.6146
653.906173 97.923 -117.2383
658.644647 97.852 -116.8643
663.417457 97.789 -116.4956
668.224854 97.734 -116.1349
673.067086 97.686 -115.7846
677.944408 97.642 -115.4470
682.857073 97.600 -115.1237
687.805336 97.559 -114.8162
692.789457 97.516 -114.5251
697.809695 97.469 -114.2505
702.866312 97.416 -113.9918
707.959571 97.355 -113.7474
713.089738 97.284 -113.5143
718.257080 97.203 -113.2884
723.461867 97.110 -113.0640
728.704370 97.004 -112.8335
733.984862 96.886 -112.5875
739.303619 96.754 -112.3146
744.660918 96.610 -112.0018
750.057038 96.454 -111.6341
755.492260 96.287 -111.1958
760.966869 96.108 -110.6702
766.481148 95.921 -110.0408
772.035387 95.726 -109.2920
777.629873 95.525 -108.4106
783.264900 95.321 -107.3865
788.940760 95.115 -106.2142
794.657750 94.909 -104.8935
800.416168 94.706 -103.4304
806.216313 94.509 -101.8366
812.058489 94.319 -100.1296
817.943000 94.139 -98.3306
823.870152 93.969 -96.4637
829.840255 93.811 -94.5539
835.853619 93.667 -92.6257
841.910559 93.537 -90.7013
848.011390 93.421 -88.8003
854.156430 93.320 -86.9389
860.346000 93.234 -85.1296
866.580422 93.162 -83.3818
872.860020 93.105 -81.7016
879.185124 93.061 -80.0927
885.556062 93.031 -78.5562
891.973166 93.013 -77.0914
898.436771 93.007 -75.6958
904.947215 93.014 -74.3658
911.504835 93.031 -73.0961
918.109975 93.060 -71.8808
924.762978 93.099 -70.7133
931.464192 93.149 -69.5864
938.213966 93.208 -68.4932
945.012651 93.277 -67.4271
951.860602 93.355 -66.3822
958.758176 93.442 -65.3541
965.705733 93.538 -64.3398
972.703635 93.642 -63.3382
979.752246 93.755 -62.3502
986.851935 93.875 -61.3785
994.003071 94.003 -60.4272
1001.206027 94.138 -59.5015
1008.461179 94.281 -58.6070
1015.768904 94.431 -57.7494
1023.129584 94.588 -56.9337
1030.543603 94.752 -56.1641
1038.011347 94.922 -55.4438
1045.533205 95.098 -54.7747
1053.109569 95.279 -54.1576
1060.740836 95.464 -53.5922
1068.427401 95.651 -53.0771
1076.169666 95.839 -52.6101
1083.968035 96.026 -52.1880
1091.822915 96.210 -51.8073
1099.734713 96.388 -51.4636
1107.703844 96.558 -51.1517
1115.730723 96.718 -50.8660
1123.815768 96.866 -50.6002
1131.959400 97.001 -50.3473
1140.162045 97.121 -50.0998
1148.424129 97.227 -49.8495
1156.746083 97.318 -49.5883
1165.128342 97.396 -49.3081
1173.571343 97.461 -49.0016
1182.075524 97.516 -48.6627
1190.641331 97.562 -48.2868
1199.269209 97.601 -47.8705
1207.959608 97.634 -47.4109
1216.712981 97.663 -46.9045
1225.529785 97.688 -46.3459
1234.410479 97.710 -45.7272
1243.355526 97.729 -45.0385
1252.365393 97.747 -44.2691
1261.440549 97.764 -43.4101
1270.581467 97.784 -42.4564
1279.788624 97.809 -41.4093
1289.062500 97.842 -40.2779
1298.403578 97.884 -39.0792
1307.812346 97.938 -37.8368
1317.289293 98.005 -36.5784
1326.834914 98.085 -35.3331
1336.449707 98.176 -34.1278
1346.134173 98.278 -32.9857
1355.888816 98.388 -31.9243
1365.714145 98.502 -30.9558
1375.610673 98.619 -30.0870
1385.578915 98.735 -29.3206
1395.619391 98.848 -28.6555
1405.732624 98.956 -28.0882
1415.919142 99.056 -27.6130
1426.179476 99.148 -27.2228
1436.514160 99.231 -26.9093
1446.923734 99.304 -26.6633
1457.408740 99.367 -26.4750
1467.969724 99.419 -26.3339
1478.607238 99.462 -26.2292
1489.321836 99.494 -26.1500
1500.114076 99.517 -26.0853
1510.984521 99.531 -26.0250
1521.933737 99.537 -25.9605
1532.962297 99.535 -25.8851
1544.070773 99.525 -25.7944
1555.259747 99.509 -25.6874
1566.529800 99.485 -25.5654
1577.881521 99.454 -25.4317
1589.315501 99.414 -25.2898
1600.832336 99.364 -25.1416
1612.432627 99.301 -24.9850
1624.116978 99.224 -24.8124
1635.886000 99.129 -24.6089
1647.740304 99.015 -24.3529
1659.680509 98.881 -24.0160
1671.707238 98.728 -23.5649
1683.821118 98.557 -22.9630
1696.022780 98.370 -22.1734
1708.312860 98.173 -21.1621
1720.692000 97.971 -19.9021
1733.160843 97.770 -18.3774
1745.720041 97.579 -16.5871
1758.370248 97.405 -14.5488
1771.112124 97.253 -12.2988
1783.946332 97.129 -9.8910
1796.873543 97.035 -7.3903
1809.894429 96.971 -4.8657
1823.009670 96.935 -2.3805
1836.219950 96.922 0.0149
1849.525956 96.928 2.2870
1862.928384 96.947 4.4207
1876.427931 96.974 6.4164
1890.025301 97.004 8.2861
1903.721204 97.035 10.0484
1917.516352 97.062 11.7237
1931.411466 97.086 13.3318
1945.407270 97.104 14.8898
1959.504493 97.115 16.4130
1973.703870 97.116 17.9169
1988.006142 97.108 19.4176
2002.412054 97.088 20.9332
2016.922357 97.055 22.4817
2031.537808 97.012 24.0798
2046.259169 96.957 25.7405
2061.087206 96.893 27.4708
2076.022694 96.821 29.2704
2091.066410 96.745 31.1306
2106.219139 96.667 33.0358
2121.481671 96.588 34.9657
2136.854802 96.509 36.8987
2152.339333 96.432 38.8166
2167.936071 96.355 40.7080
2183.645829 96.278 42.5700
2199.469427 96.200 44.4084
2215.407689 96.122 46.2355
2231.461446 96.043 48.0667
2247.631536 95.963 49.9179
2263.918800 95.885 51.8024
2280.324089 95.809 53.7305
2296.848258 95.737 55.7092
2313.492167 95.670 57.7426
2330.256685 95.609 59.8317
2347.142685 95.555 61.9733
2364.151049 95.511 64.1595
2381.282662 95.477 66.3766
2398.538418 95.455 68.6065
2415.919216 95.444 70.8277
2433.425962 95.445 73.0173
2451.059570 95.456 75.1542
2468.820958 95.476 77.2207
2486.711052 95.502 79.2045
2504.730786 95.533 81.0993
2522.881098 95.565 82.9055
2541.162934 95.597 84.6295
2559.577248 95.626 86.2838
2578.125000 95.650 87.8870
2596.807157 95.668 89.4639
2615.624692 95.681 91.0448
2634.578586 95.688 92.6647
2653.669829 95.691 94.3617
2672.899414 95.694 96.1737
2692.268345 95.701 98.1355
2711.777632 95.717 100.2731
2731.428290 95.748 102.5990
2751.221345 95.798 105.1069
2771.157829 95.873 107.7698
2791.238781 95.973 110.5424
2811.465248 96.098 113.3675
2831.838284 96.244 116.1867
2852.358952 96.407 118.9486
2873.028321 96.581 121.6167
2893.847468 96.760 124.1705
2914.817480 96.937 126.6057
2935.939449 97.108 128.9300
2957.214476 97.271 131.1591
2978.643672 97.422 133.3124
3000.228152 97.560 135.4095
3021.969041 97.686 137.4676
3043.867475 97.799 139.4999
3065.924593 97.900 141.5163
3088.141547 97.991 143.5236
3110.519493 98.072 145.5280
3133.059600 98.144 147.5363
3155.763041 98.208 149.5555
3178.631001 98.267 151.5925
3201.664672 98.321 153.6507
3224.865254 98.374 155.7293
3248.233957 98.427 157.8211
3271.771999 98.482 159.9142
3295.480608 98.539 161.9934
