* Measurement data measured by REW V5.31.3
* Source: EXCL: Headset (USB-C to 3.5mm Headphone Jack Adapter), MICROPHONE (Master Volume), 0, volume: 0.260
* Format: 256k Log Swept Sine, 1 sweep at -12.0 dBFS with no timing reference
* Dated: Feb 10, 2025 1:45:43 PM
* REW Settings:
*  C-weighting compensation: Off
*  Target level: 75.0 dB
* Note: ; 
* Measurement: Maxwell L10
* Smoothing: 1/6 octave
* Frequency Step: 96 ppo
* Start Frequency: 20.0 Hz
*
* Freq(Hz) SPL(dB) Phase(degrees)
20.141602 98.742 24.6022
20.287556 98.785 24.0473
20.434568 98.838 23.3120
20.582645 98.897 22.4245
20.731796 98.957 21.4145
20.882027 99.014 20.3115
21.033346 99.063 19.1424
21.185763 99.103 17.9310
21.339284 99.131 16.6969
21.493917 99.148 15.4559
21.649671 99.156 14.2197
21.806553 99.155 12.9962
21.964572 99.148 11.7900
22.123737 99.139 10.6023
22.284054 99.130 9.4314
22.445534 99.124 8.2733
22.608183 99.125 7.1217
22.772012 99.134 5.9690
22.937027 99.153 4.8070
23.103238 99.185 3.6273
23.270654 99.229 2.4218
23.439282 99.287 1.1841
23.609133 99.356 -0.0907
23.780215 99.438 -1.4054
23.952536 99.529 -2.7603
24.126106 99.630 -4.1536
24.300934 99.738 -5.5809
24.477028 99.852 -7.0362
24.654399 99.969 -8.5122
24.833055 100.089 -10.0003
25.013005 100.209 -11.4919
25.194260 100.329 -12.9786
25.376828 100.447 -14.4527
25.560719 100.562 -15.9081
25.745942 100.674 -17.3401
25.932508 100.782 -18.7459
26.120426 100.886 -20.1246
26.309705 100.987 -21.4771
26.500356 101.083 -22.8058
26.692388 101.175 -24.1146
26.885812 101.263 -25.4080
27.080638 101.348 -26.6911
27.276876 101.430 -27.9692
27.474535 101.509 -29.2477
27.673627 101.587 -30.5317
27.874161 101.665 -31.8261
28.076149 101.744 -33.1352
28.279600 101.826 -34.4629
28.484526 101.913 -35.8122
28.690937 102.007 -37.1854
28.898843 102.108 -38.5835
29.108256 102.218 -40.0063
29.319186 102.336 -41.4525
29.531645 102.463 -42.9193
29.745644 102.597 -44.4030
29.961193 102.736 -45.8988
30.178304 102.877 -47.4015
30.396989 103.017 -48.9059
30.617258 103.152 -50.4067
30.839123 103.278 -51.8992
31.062596 103.393 -53.3792
31.287688 103.490 -54.8431
31.514412 103.569 -56.2878
31.742778 103.624 -57.7104
31.972800 103.654 -59.1083
32.204488 103.657 -60.4789
32.437855 103.631 -61.8195
32.672913 103.577 -63.1279
32.909674 103.495 -64.4019
33.148151 103.387 -65.6401
33.388356 103.255 -66.8415
33.630302 103.101 -68.0060
33.874001 102.930 -69.1340
34.119466 102.745 -70.2266
34.366710 102.550 -71.2849
34.615745 102.350 -72.3102
34.866585 102.150 -73.3038
35.119243 101.954 -74.2669
35.373731 101.766 -75.2006
35.630064 101.591 -76.1061
35.888254 101.432 -76.9846
36.148315 101.294 -77.8378
36.410261 101.178 -78.6674
36.674104 101.087 -79.4755
36.939860 101.022 -80.2646
37.207542 100.985 -81.0374
37.477163 100.976 -81.7971
37.748738 100.994 -82.5475
38.022281 101.041 -83.2928
38.297806 101.113 -84.0376
38.575327 101.212 -84.7868
38.854860 101.334 -85.5452
39.136419 101.481 -86.3178
39.420017 101.649 -87.1093
39.705671 101.838 -87.9237
39.993395 102.046 -88.7650
40.283203 102.271 -89.6366
40.575112 102.512 -90.5413
40.869136 102.766 -91.4815
41.165290 103.031 -92.4589
41.463591 103.304 -93.4744
41.764053 103.581 -94.5283
42.066693 103.861 -95.6203
42.371525 104.139 -96.7496
42.678567 104.412 -97.9151
42.987834 104.678 -99.1152
43.299341 104.934 -100.3475
43.613106 105.176 -101.6093
43.929145 105.402 -102.8966
44.247473 105.612 -104.2046
44.568109 105.802 -105.5274
44.891068 105.973 -106.8588
45.216367 106.124 -108.1925
45.544023 106.254 -109.5230
45.874054 106.365 -110.8461
46.206476 106.456 -112.1592
46.541307 106.528 -113.4618
46.878565 106.582 -114.7547
47.218266 106.617 -116.0401
47.560429 106.635 -117.3206
47.905072 106.635 -118.5986
48.252212 106.618 -119.8758
48.601867 106.584 -121.1524
48.954056 106.533 -122.4274
49.308798 106.468 -123.6985
49.666109 106.389 -124.9625
50.026010 106.298 -126.2157
50.388520 106.196 -127.4542
50.753656 106.085 -128.6743
51.121437 105.966 -129.8726
51.491884 105.840 -131.0464
51.865016 105.710 -132.1931
52.240851 105.577 -133.3109
52.619410 105.440 -134.3980
53.000712 105.302 -135.4526
53.384777 105.163 -136.4726
53.771625 105.023 -137.4556
54.161276 104.883 -138.3987
54.553751 104.743 -139.2984
54.949070 104.602 -140.1517
55.347254 104.461 -140.9561
55.748323 104.319 -141.7097
56.152298 104.176 -142.4124
56.559201 104.034 -143.0653
56.969052 103.891 -143.6711
57.381873 103.749 -144.2337
57.797686 103.606 -144.7578
58.216512 103.465 -145.2480
58.638373 103.323 -145.7089
59.063291 103.183 -146.1443
59.491288 103.043 -146.5572
59.922386 102.903 -146.9501
60.356608 102.764 -147.3250
60.793977 102.627 -147.6835
61.234515 102.491 -148.0269
61.678246 102.358 -148.3565
62.125192 102.227 -148.6732
62.575377 102.100 -148.9779
63.028824 101.975 -149.2712
63.485557 101.855 -149.5537
63.945599 101.739 -149.8259
64.408975 101.628 -150.0883
64.875709 101.522 -150.3412
65.345825 101.421 -150.5852
65.819348 101.325 -150.8203
66.296302 101.235 -151.0470
66.776713 101.150 -151.2657
67.260604 101.072 -151.4770
67.748002 100.999 -151.6820
68.238932 100.932 -151.8817
68.733420 100.870 -152.0777
69.231490 100.813 -152.2712
69.733170 100.761 -152.4636
70.238485 100.713 -152.6560
70.747463 100.669 -152.8494
71.260128 100.629 -153.0446
71.776508 100.593 -153.2427
72.296630 100.560 -153.4444
72.820521 100.530 -153.6504
73.348209 100.504 -153.8616
73.879720 100.480 -154.0784
74.415083 100.458 -154.3014
74.954326 100.439 -154.5307
75.497475 100.421 -154.7664
76.044561 100.403 -155.0084
76.595612 100.386 -155.2563
77.150655 100.369 -155.5101
77.709720 100.351 -155.7695
78.272837 100.331 -156.0347
78.840034 100.309 -156.3063
79.411342 100.285 -156.5851
79.986789 100.258 -156.8721
80.566406 100.229 -157.1680
81.150224 100.196 -157.4739
81.738272 100.159 -157.7899
82.330581 100.120 -158.1162
82.927182 100.078 -158.4521
83.528107 100.035 -158.7964
84.133386 99.991 -159.1476
84.743051 99.950 -159.5041
85.357134 99.913 -159.8642
85.975667 99.884 -160.2263
86.598682 99.865 -160.5892
87.226212 99.860 -160.9520
87.858289 99.872 -161.3139
88.494946 99.903 -161.6739
89.136217 99.957 -162.0310
89.782135 100.032 -162.3841
90.432733 100.130 -162.7316
91.088046 100.248 -163.0720
91.748108 100.384 -163.4036
92.412952 100.532 -163.7249
93.082615 100.687 -164.0343
93.757130 100.845 -164.3305
94.436533 101.000 -164.6128
95.120859 101.147 -164.8806
95.810144 101.282 -165.1339
96.504423 101.402 -165.3730
97.203734 101.506 -165.5982
97.908112 101.592 -165.8100
98.617595 101.661 -166.0087
99.332219 101.714 -166.1949
100.052021 101.753 -166.3691
100.777039 101.779 -166.5320
101.507311 101.795 -166.6846
102.242875 101.803 -166.8276
102.983769 101.805 -166.9618
103.730032 101.802 -167.0878
104.481702 101.795 -167.2057
105.238820 101.784 -167.3157
106.001424 101.768 -167.4176
106.769554 101.747 -167.5115
107.543250 101.718 -167.5976
108.322553 101.681 -167.6761
109.107503 101.635 -167.7474
109.898141 101.576 -167.8124
110.694508 101.506 -167.8724
111.496646 101.423 -167.9289
112.304596 101.329 -167.9835
113.118402 101.224 -168.0377
113.938104 101.110 -168.0925
114.763747 100.988 -168.1488
115.595372 100.862 -168.2067
116.433024 100.733 -168.2663
117.276746 100.604 -168.3275
118.126581 100.476 -168.3903
118.982575 100.350 -168.4550
119.844772 100.228 -168.5222
120.713217 100.110 -168.5926
121.587954 99.995 -168.6673
122.469031 99.883 -168.7471
123.356492 99.773 -168.8329
124.250384 99.663 -168.9254
125.150753 99.551 -169.0251
126.057647 99.437 -169.1327
126.971113 99.318 -169.2488
127.891198 99.194 -169.3739
128.817950 99.063 -169.5083
129.751418 98.925 -169.6521
130.691651 98.780 -169.8052
131.638696 98.629 -169.9670
132.592604 98.473 -170.1368
133.553425 98.314 -170.3137
134.521208 98.154 -170.4965
135.496004 97.997 -170.6842
136.477864 97.844 -170.8762
137.466839 97.700 -171.0717
138.462981 97.567 -171.2701
139.466340 97.448 -171.4703
140.476971 97.345 -171.6710
141.494925 97.258 -171.8706
142.520256 97.187 -172.0671
143.553016 97.130 -172.2583
144.593260 97.084 -172.4419
145.641043 97.047 -172.6155
146.696418 97.014 -172.7767
147.759441 96.981 -172.9234
148.830166 96.946 -173.0532
149.908651 96.904 -173.1644
150.994951 96.855 -173.2548
152.089123 96.797 -173.3226
153.191223 96.730 -173.3657
154.301310 96.654 -173.3818
155.419441 96.571 -173.3689
156.545674 96.483 -173.3249
157.680069 96.392 -173.2483
158.822683 96.299 -173.1378
159.973578 96.206 -172.9925
161.132813 96.115 -172.8121
162.300447 96.027 -172.5965
163.476543 95.943 -172.3460
164.661162 95.865 -172.0614
165.854364 95.793 -171.7438
167.056213 95.727 -171.3952
168.266772 95.669 -171.0177
169.486102 95.619 -170.6140
170.714268 95.578 -170.1873
171.951334 95.545 -169.7405
173.197364 95.523 -169.2771
174.452424 95.509 -168.8001
175.716578 95.506 -168.3129
176.989893 95.511 -167.8185
178.272434 95.524 -167.3201
179.564270 95.543 -166.8207
180.865467 95.568 -166.3232
182.176092 95.596 -165.8304
183.496216 95.627 -165.3446
184.825905 95.660 -164.8681
186.165229 95.693 -164.4030
187.514259 95.727 -163.9508
188.873065 95.760 -163.5131
190.241717 95.794 -163.0913
191.620287 95.828 -162.6863
193.008847 95.863 -162.2991
194.407468 95.899 -161.9298
195.816225 95.936 -161.5788
197.235190 95.973 -161.2455
198.664438 96.011 -160.9296
200.104042 96.048 -160.6302
201.554078 96.086 -160.3463
203.014622 96.121 -160.0768
204.485750 96.155 -159.8204
205.967538 96.187 -159.5763
207.460064 96.215 -159.3434
208.963405 96.241 -159.1205
210.477640 96.262 -158.9063
212.002848 96.280 -158.6992
213.539108 96.294 -158.4980
215.086500 96.305 -158.3012
216.645105 96.314 -158.1072
218.215005 96.319 -157.9146
219.796281 96.323 -157.7217
221.389015 96.323 -157.5275
222.993292 96.320 -157.3307
224.609193 96.314 -157.1306
226.236804 96.304 -156.9260
227.876209 96.288 -156.7164
229.527494 96.268 -156.5011
231.190745 96.243 -156.2798
232.866048 96.212 -156.0523
234.553491 96.177 -155.8186
236.253163 96.138 -155.5789
237.965150 96.097 -155.3337
239.689544 96.053 -155.0836
241.426433 96.008 -154.8293
243.175909 95.964 -154.5713
244.938062 95.921 -154.3101
246.712984 95.881 -154.0458
248.500768 95.843 -153.7784
250.301507 95.810 -153.5076
252.115295 95.782 -153.2334
253.942226 95.760 -152.9554
255.782396 95.745 -152.6739
257.635901 95.737 -152.3896
259.502837 95.737 -152.1038
261.383301 95.746 -151.8180
263.277392 95.764 -151.5344
265.185209 95.791 -151.2554
267.106850 95.828 -150.9838
269.042417 95.874 -150.7224
270.992009 95.928 -150.4738
272.955729 95.991 -150.2408
274.933678 96.060 -150.0260
276.925961 96.137 -149.8320
278.932681 96.219 -149.6610
280.953942 96.306 -149.5154
282.989850 96.398 -149.3969
285.040511 96.494 -149.3071
287.106032 96.595 -149.2471
289.186521 96.700 -149.2176
291.282086 96.810 -149.2189
293.392836 96.925 -149.2512
295.518881 97.044 -149.3138
297.660333 97.167 -149.4057
299.817302 97.293 -149.5255
301.989902 97.420 -149.6713
304.178245 97.547 -149.8411
306.382446 97.673 -150.0327
308.602620 97.794 -150.2440
310.838882 97.909 -150.4725
313.091348 98.016 -150.7158
315.360137 98.113 -150.9710
317.645367 98.200 -151.2350
319.947156 98.274 -151.5042
322.265625 98.336 -151.7748
324.600895 98.383 -152.0427
326.953086 98.417 -152.3034
329.322323 98.436 -152.5526
331.708729 98.441 -152.7860
334.112427 98.432 -152.9995
336.533543 98.410 -153.1898
338.972204 98.376 -153.3544
341.428536 98.330 -153.4913
343.902668 98.275 -153.5997
346.394729 98.213 -153.6795
348.904848 98.145 -153.7312
351.433156 98.074 -153.7562
353.979786 98.004 -153.7562
356.544869 97.936 -153.7332
359.128540 97.875 -153.6899
361.730934 97.824 -153.6288
364.352185 97.786 -153.5531
366.992431 97.764 -153.4658
369.651810 97.760 -153.3702
372.330459 97.777 -153.2698
375.028519 97.814 -153.1678
377.746130 97.873 -153.0677
380.483434 97.951 -152.9725
383.240574 98.047 -152.8851
386.017693 98.158 -152.8080
388.814937 98.282 -152.7430
391.632450 98.415 -152.6916
394.470380 98.555 -152.6549
397.328875 98.698 -152.6334
400.208084 98.842 -152.6271
403.108157 98.986 -152.6361
406.029245 99.128 -152.6600
408.971500 99.268 -152.6984
411.935076 99.404 -152.7510
414.920127 99.537 -152.8174
417.926810 99.668 -152.8972
420.955280 99.797 -152.9899
424.005695 99.924 -153.0952
427.078215 100.051 -153.2128
430.173000 100.177 -153.3424
433.290211 100.303 -153.4838
436.430010 100.428 -153.6369
439.592562 100.551 -153.8014
442.778031 100.672 -153.9771
445.986583 100.789 -154.1640
449.218386 100.901 -154.3618
452.473607 101.005 -154.5703
455.752418 101.101 -154.7894
459.054987 101.186 -155.0188
462.381489 101.261 -155.2585
465.732096 101.324 -155.5081
469.106983 101.375 -155.7675
472.506325 101.415 -156.0363
475.930301 101.444 -156.3143
479.379088 101.462 -156.6013
482.852867 101.471 -156.8969
486.351817 101.472 -157.2010
489.876123 101.465 -157.5132
493.425968 101.452 -157.8334
497.001536 101.434 -158.1611
500.603014 101.410 -158.4964
504.230589 101.381 -158.8391
507.884452 101.347 -159.1894
511.564792 101.308 -159.5474
515.271802 101.264 -159.9131
519.005673 101.215 -160.2864
522.766602 101.163 -160.6671
526.554785 101.107 -161.0547
530.370418 101.050 -161.4481
534.213700 100.992 -161.8461
538.084833 100.935 -162.2471
541.984018 100.881 -162.6490
545.911457 100.831 -163.0493
549.867357 100.786 -163.4451
553.851922 100.745 -163.8333
557.865362 100.708 -164.2102
561.907884 100.674 -164.5722
565.979700 100.642 -164.9159
570.081022 100.610 -165.2378
574.212064 100.578 -165.5353
578.373042 100.542 -165.8063
582.564171 100.503 -166.0498
586.785671 100.459 -166.2658
591.037762 100.410 -166.4551
595.320665 100.354 -166.6197
599.634604 100.293 -166.7622
603.979804 100.226 -166.8857
608.356491 100.154 -166.9940
612.764893 100.076 -167.0907
617.205240 99.994 -167.1796
621.677763 99.908 -167.2643
626.182696 99.819 -167.3481
630.720274 99.729 -167.4341
635.290733 99.639 -167.5247
639.894312 99.551 -167.6217
644.531250 99.464 -167.7262
649.201789 99.381 -167.8385
653.906173 99.303 -167.9582
658.644647 99.228 -168.0842
663.417457 99.157 -168.2142
668.224854 99.089 -168.3456
673.067086 99.023 -168.4747
677.944408 98.957 -168.5973
682.857073 98.889 -168.7084
687.805336 98.818 -168.8026
692.789457 98.741 -168.8739
697.809695 98.659 -168.9163
702.866312 98.569 -168.9233
707.959571 98.471 -168.8887
713.089738 98.365 -168.8064
718.257080 98.252 -168.6707
723.461867 98.131 -168.4767
728.704370 98.005 -168.2199
733.984862 97.874 -167.8972
739.303619 97.741 -167.5067
744.660918 97.606 -167.0476
750.057038 97.473 -166.5210
755.492260 97.343 -165.9298
760.966869 97.219 -165.2789
766.481148 97.100 -164.5750
772.035387 96.989 -163.8271
777.629873 96.886 -163.0455
783.264900 96.790 -162.2418
788.940760 96.701 -161.4276
794.657750 96.618 -160.6144
800.416168 96.539 -159.8123
806.216313 96.464 -159.0297
812.058489 96.390 -158.2730
817.943000 96.315 -157.5460
823.870152 96.240 -156.8502
829.840255 96.162 -156.1849
835.853619 96.082 -155.5475
841.910559 95.999 -154.9339
848.011390 95.914 -154.3389
854.156430 95.827 -153.7565
860.346000 95.739 -153.1808
866.580422 95.652 -152.6060
872.860020 95.567 -152.0272
879.185124 95.486 -151.4407
885.556062 95.410 -150.8446
891.973166 95.342 -150.2384
898.436771 95.283 -149.6234
904.947215 95.237 -149.0025
911.504835 95.203 -148.3795
918.109975 95.185 -147.7596
924.762978 95.183 -147.1488
931.464192 95.197 -146.5535
938.213966 95.228 -145.9806
945.012651 95.276 -145.4371
951.860602 95.340 -144.9294
958.758176 95.417 -144.4634
965.705733 95.506 -144.0437
972.703635 95.606 -143.6737
979.752246 95.715 -143.3556
986.851935 95.830 -143.0900
994.003071 95.950 -142.8770
1001.206027 96.073 -142.7153
1008.461179 96.200 -142.6033
1015.768904 96.329 -142.5391
1023.129584 96.461 -142.5206
1030.543603 96.595 -142.5458
1038.011347 96.731 -142.6130
1045.533205 96.869 -142.7205
1053.109569 97.010 -142.8666
1060.740836 97.152 -143.0495
1068.427401 97.294 -143.2673
1076.169666 97.434 -143.5170
1083.968035 97.572 -143.7953
1091.822915 97.704 -144.0974
1099.734713 97.828 -144.4173
1107.703844 97.941 -144.7470
1115.730723 98.042 -145.0764
1123.815768 98.128 -145.3930
1131.959400 98.198 -145.6816
1140.162045 98.251 -145.9247
1148.424129 98.288 -146.1033
1156.746083 98.311 -146.1978
1165.128342 98.321 -146.1904
1173.571343 98.325 -146.0668
1182.075524 98.325 -145.8194
1190.641331 98.329 -145.4487
1199.269209 98.341 -144.9642
1207.959608 98.365 -144.3844
1216.712981 98.406 -143.7339
1225.529785 98.463 -143.0413
1234.410479 98.539 -142.3357
1243.355526 98.631 -141.6444
1252.365393 98.737 -140.9905
1261.440549 98.855 -140.3922
1270.581467 98.981 -139.8620
1279.788624 99.114 -139.4076
1289.062500 99.249 -139.0321
1298.403578 99.386 -138.7358
1307.812346 99.522 -138.5168
1317.289293 99.657 -138.3722
1326.834914 99.789 -138.2989
1336.449707 99.918 -138.2935
1346.134173 100.043 -138.3528
1355.888816 100.162 -138.4734
1365.714145 100.276 -138.6515
1375.610673 100.382 -138.8823
1385.578915 100.480 -139.1607
1395.619391 100.569 -139.4804
1405.732624 100.648 -139.8343
1415.919142 100.717 -140.2146
1426.179476 100.777 -140.6129
1436.514160 100.828 -141.0211
1446.923734 100.871 -141.4314
1457.408740 100.908 -141.8376
1467.969724 100.939 -142.2355
1478.607238 100.968 -142.6239
1489.321836 100.994 -143.0049
1500.114076 101.019 -143.3831
1510.984521 101.043 -143.7645
1521.933737 101.065 -144.1543
1532.962297 101.084 -144.5555
1544.070773 101.098 -144.9675
1555.259747 101.105 -145.3859
1566.529800 101.105 -145.8023
1577.881521 101.096 -146.2051
1589.315501 101.077 -146.5805
1600.832336 101.048 -146.9139
1612.432627 101.011 -147.1910
1624.116978 100.967 -147.4000
1635.886000 100.918 -147.5319
1647.740304 100.866 -147.5813
1659.680509 100.813 -147.5464
1671.707238 100.763 -147.4285
1683.821118 100.718 -147.2311
1696.022780 100.679 -146.9602
1708.312860 100.649 -146.6239
1720.692000 100.630 -146.2333
1733.160843 100.623 -145.8027
1745.720041 100.630 -145.3502
1758.370248 100.650 -144.8973
1771.112124 100.681 -144.4669
1783.946332 100.723 -144.0810
1796.873543 100.772 -143.7574
1809.894429 100.825 -143.5078
1823.009670 100.877 -143.3364
1836.219950 100.924 -143.2404
1849.525956 100.965 -143.2109
1862.928384 100.997 -143.2341
1876.427931 101.018 -143.2933
1890.025301 101.029 -143.3702
1903.721204 101.029 -143.4464
1917.516352 101.018 -143.5047
1931.411466 100.999 -143.5292
1945.407270 100.971 -143.5071
1959.504493 100.938 -143.4285
1973.703870 100.899 -143.2883
1988.006142 100.858 -143.0860
2002.412054 100.814 -142.8263
2016.922357 100.769 -142.5179
2031.537808 100.723 -142.1720
2046.259169 100.676 -141.8000
2061.087206 100.627 -141.4118
2076.022694 100.575 -141.0160
2091.066410 100.522 -140.6194
2106.219139 100.466 -140.2279
2121.481671 100.408 -139.8472
2136.854802 100.349 -139.4827
2152.339333 100.290 -139.1390
2167.936071 100.231 -138.8194
2183.645829 100.172 -138.5256
2199.469427 100.115 -138.2581
2215.407689 100.060 -138.0161
2231.461446 100.008 -137.7988
2247.631536 99.960 -137.6059
2263.918800 99.915 -137.4377
2280.324089 99.874 -137.2960
2296.848258 99.837 -137.1836
2313.492167 99.804 -137.1050
2330.256685 99.773 -137.0652
2347.142685 99.744 -137.0698
2364.151049 99.716 -137.1235
2381.282662 99.685 -137.2287
2398.538418 99.649 -137.3841
2415.919216 99.606 -137.5840
2433.425962 99.553 -137.8173
2451.059570 99.489 -138.0677
2468.820958 99.410 -138.3124
2486.711052 99.315 -138.5223
2504.730786 99.205 -138.6619
2522.881098 99.079 -138.6895
2541.162934 98.940 -138.5594
2559.577248 98.794 -138.2261
2578.125000 98.648 -137.6504
2596.807157 98.512 -136.8074
2615.624692 98.397 -135.6955
2634.578586 98.315 -134.3419
2653.669829 98.276 -132.8032
2672.899414 98.287 -131.1584
2692.268345 98.349 -129.4951
2711.777632 98.461 -127.8945
2731.428290 98.614 -126.4194
2751.221345 98.802 -125.1089
2771.157829 99.014 -123.9795
2791.238781 99.244 -123.0300
2811.465248 99.483 -122.2482
2831.838284 99.727 -121.6169
2852.358952 99.970 -121.1182
2873.028321 100.208 -120.7364
2893.847468 100.440 -120.4592
2914.817480 100.662 -120.2768
2935.939449 100.872 -120.1807
2957.214476 101.068 -120.1621
