* Measurement data measured by REW V5.31.3
* Source: EXCL: Headset (USB-C to 3.5mm Headphone Jack Adapter), MICROPHONE (Master Volume), 0, volume: 0.260
* Format: 256k Log Swept Sine, 1 sweep at -12.0 dBFS with no timing reference
* Dated: Feb 10, 2025 1:59:48 PM
* REW Settings:
*  C-weighting compensation: Off
*  Target level: 75.0 dB
* Note: ; 
* Measurement: Maxwell (WC FreeZe) L10
* Smoothing: 1/6 octave
* Frequency Step: 96 ppo
* Start Frequency: 20.0 Hz
*
* Freq(Hz) SPL(dB) Phase(degrees)
20.141602 99.270 19.7117
20.287556 99.315 19.2450
20.434568 99.373 18.6218
20.582645 99.439 17.8599
20.731796 99.508 16.9783
20.882027 99.577 15.9960
21.033346 99.642 14.9308
21.185763 99.699 13.7989
21.339284 99.749 12.6147
21.493917 99.789 11.3904
21.649671 99.821 10.1360
21.806553 99.846 8.8599
21.964572 99.864 7.5689
22.123737 99.879 6.2677
22.284054 99.892 4.9601
22.445534 99.906 3.6484
22.608183 99.921 2.3341
22.772012 99.942 1.0176
22.937027 99.968 -0.3010
23.103238 100.001 -1.6221
23.270654 100.043 -2.9467
23.439282 100.095 -4.2755
23.609133 100.156 -5.6098
23.780215 100.228 -6.9507
23.952536 100.311 -8.2996
24.126106 100.404 -9.6578
24.300934 100.508 -11.0270
24.477028 100.622 -12.4087
24.654399 100.745 -13.8045
24.833055 100.874 -15.2160
25.013005 101.009 -16.6442
25.194260 101.148 -18.0901
25.376828 101.289 -19.5538
25.560719 101.428 -21.0350
25.745942 101.565 -22.5325
25.932508 101.697 -24.0447
26.120426 101.823 -25.5693
26.309705 101.941 -27.1035
26.500356 102.050 -28.6446
26.692388 102.149 -30.1897
26.885812 102.238 -31.7362
27.080638 102.316 -33.2818
27.276876 102.385 -34.8247
27.474535 102.444 -36.3635
27.673627 102.496 -37.8973
27.874161 102.541 -39.4253
28.076149 102.583 -40.9468
28.279600 102.625 -42.4615
28.484526 102.669 -43.9687
28.690937 102.720 -45.4678
28.898843 102.781 -46.9582
29.108256 102.854 -48.4394
29.319186 102.943 -49.9111
29.531645 103.048 -51.3733
29.745644 103.169 -52.8264
29.961193 103.304 -54.2714
30.178304 103.451 -55.7094
30.396989 103.605 -57.1417
30.617258 103.762 -58.5699
30.839123 103.915 -59.9949
31.062596 104.059 -61.4173
31.287688 104.188 -62.8372
31.514412 104.298 -64.2537
31.742778 104.383 -65.6655
31.972800 104.441 -67.0706
32.204488 104.469 -68.4666
32.437855 104.466 -69.8512
32.672913 104.431 -71.2216
32.909674 104.364 -72.5757
33.148151 104.268 -73.9114
33.388356 104.144 -75.2271
33.630302 103.996 -76.5214
33.874001 103.827 -77.7936
34.119466 103.641 -79.0431
34.366710 103.442 -80.2695
34.615745 103.235 -81.4727
34.866585 103.025 -82.6527
35.119243 102.815 -83.8096
35.373731 102.610 -84.9436
35.630064 102.414 -86.0547
35.888254 102.231 -87.1432
36.148315 102.063 -88.2093
36.410261 101.914 -89.2531
36.674104 101.786 -90.2750
36.939860 101.680 -91.2752
37.207542 101.597 -92.2543
37.477163 101.539 -93.2127
37.748738 101.506 -94.1511
38.022281 101.498 -95.0704
38.297806 101.515 -95.9714
38.575327 101.556 -96.8552
38.854860 101.620 -97.7229
39.136419 101.707 -98.5757
39.420017 101.815 -99.4152
39.705671 101.944 -100.2428
39.993395 102.093 -101.0606
40.283203 102.260 -101.8709
40.575112 102.443 -102.6766
40.869136 102.643 -103.4812
41.165290 102.856 -104.2884
41.463591 103.080 -105.1025
41.764053 103.314 -105.9281
42.066693 103.555 -106.7699
42.371525 103.801 -107.6322
42.678567 104.048 -108.5196
42.987834 104.295 -109.4358
43.299341 104.538 -110.3843
43.613106 104.775 -111.3676
43.929145 105.004 -112.3874
44.247473 105.221 -113.4443
44.568109 105.425 -114.5380
44.891068 105.614 -115.6673
45.216367 105.786 -116.8303
45.544023 105.939 -118.0245
45.874054 106.072 -119.2473
46.206476 106.183 -120.4953
46.541307 106.272 -121.7650
46.878565 106.336 -123.0522
47.218266 106.377 -124.3518
47.560429 106.392 -125.6582
47.905072 106.384 -126.9651
48.252212 106.353 -128.2660
48.601867 106.301 -129.5544
48.954056 106.228 -130.8240
49.308798 106.139 -132.0697
49.666109 106.034 -133.2870
50.026010 105.918 -134.4728
50.388520 105.792 -135.6250
50.753656 105.659 -136.7425
51.121437 105.522 -137.8252
51.491884 105.381 -138.8733
51.865016 105.240 -139.8877
52.240851 105.099 -140.8694
52.619410 104.959 -141.8194
53.000712 104.821 -142.7392
53.384777 104.685 -143.6295
53.771625 104.552 -144.4914
54.161276 104.421 -145.3252
54.553751 104.291 -146.1313
54.949070 104.162 -146.9097
55.347254 104.034 -147.6602
55.748323 103.904 -148.3829
56.152298 103.773 -149.0775
56.559201 103.640 -149.7437
56.969052 103.505 -150.3812
57.381873 103.366 -150.9894
57.797686 103.225 -151.5678
58.216512 103.082 -152.1158
58.638373 102.936 -152.6328
59.063291 102.787 -153.1183
59.491288 102.637 -153.5724
59.922386 102.487 -153.9951
60.356608 102.336 -154.3875
60.793977 102.186 -154.7505
61.234515 102.038 -155.0858
61.678246 101.891 -155.3951
62.125192 101.748 -155.6803
62.575377 101.608 -155.9432
63.028824 101.471 -156.1857
63.485557 101.340 -156.4095
63.945599 101.213 -156.6164
64.408975 101.093 -156.8085
64.875709 100.978 -156.9880
65.345825 100.869 -157.1571
65.819348 100.768 -157.3182
66.296302 100.673 -157.4735
66.776713 100.584 -157.6247
67.260604 100.503 -157.7734
67.748002 100.427 -157.9206
68.238932 100.358 -158.0673
68.733420 100.294 -158.2143
69.231490 100.235 -158.3625
69.733170 100.182 -158.5130
70.238485 100.132 -158.6669
70.747463 100.087 -158.8256
71.260128 100.046 -158.9903
71.776508 100.008 -159.1621
72.296630 99.973 -159.3417
72.820521 99.941 -159.5294
73.348209 99.911 -159.7254
73.879720 99.883 -159.9294
74.415083 99.858 -160.1408
74.954326 99.833 -160.3587
75.497475 99.810 -160.5824
76.044561 99.787 -160.8110
76.595612 99.765 -161.0436
77.150655 99.741 -161.2796
77.709720 99.717 -161.5182
78.272837 99.690 -161.7593
78.840034 99.662 -162.0024
79.411342 99.630 -162.2476
79.986789 99.596 -162.4951
80.566406 99.558 -162.7451
81.150224 99.517 -162.9980
81.738272 99.473 -163.2541
82.330581 99.427 -163.5137
82.927182 99.378 -163.7771
83.528107 99.329 -164.0444
84.133386 99.281 -164.3151
84.743051 99.236 -164.5889
85.357134 99.197 -164.8651
85.975667 99.166 -165.1428
86.598682 99.146 -165.4217
87.226212 99.141 -165.7011
87.858289 99.155 -165.9808
88.494946 99.188 -166.2603
89.136217 99.245 -166.5395
89.782135 99.324 -166.8178
90.432733 99.426 -167.0949
91.088046 99.549 -167.3700
91.748108 99.689 -167.6425
92.412952 99.843 -167.9115
93.082615 100.004 -168.1759
93.757130 100.168 -168.4346
94.436533 100.329 -168.6870
95.120859 100.482 -168.9319
95.810144 100.624 -169.1690
96.504423 100.750 -169.3974
97.203734 100.860 -169.6166
97.908112 100.951 -169.8263
98.617595 101.025 -170.0262
99.332219 101.081 -170.2165
100.052021 101.123 -170.3973
100.777039 101.151 -170.5690
101.507311 101.169 -170.7320
102.242875 101.178 -170.8867
102.983769 101.180 -171.0333
103.730032 101.178 -171.1722
104.481702 101.171 -171.3035
105.238820 101.160 -171.4275
106.001424 101.145 -171.5442
106.769554 101.123 -171.6537
107.543250 101.095 -171.7563
108.322553 101.058 -171.8524
109.107503 101.011 -171.9424
109.898141 100.953 -172.0270
110.694508 100.882 -172.1068
111.496646 100.799 -172.1830
112.304596 100.703 -172.2567
113.118402 100.597 -172.3292
113.938104 100.480 -172.4018
114.763747 100.356 -172.4752
115.595372 100.226 -172.5501
116.433024 100.093 -172.6266
117.276746 99.958 -172.7047
118.126581 99.824 -172.7841
118.982575 99.692 -172.8650
119.844772 99.563 -172.9474
120.713217 99.437 -173.0315
121.587954 99.314 -173.1179
122.469031 99.195 -173.2071
123.356492 99.077 -173.2997
124.250384 98.959 -173.3962
125.150753 98.840 -173.4974
126.057647 98.718 -173.6041
126.971113 98.591 -173.7173
127.891198 98.460 -173.8377
128.817950 98.321 -173.9660
129.751418 98.175 -174.1025
130.691651 98.022 -174.2469
131.638696 97.862 -174.3985
132.592604 97.697 -174.5564
133.553425 97.528 -174.7192
134.521208 97.357 -174.8854
135.496004 97.187 -175.0534
136.477864 97.023 -175.2215
137.466839 96.866 -175.3880
138.462981 96.720 -175.5515
139.466340 96.588 -175.7102
140.476971 96.473 -175.8629
141.494925 96.373 -176.0078
142.520256 96.290 -176.1433
143.553016 96.222 -176.2677
144.593260 96.166 -176.3790
145.641043 96.119 -176.4754
146.696418 96.076 -176.5548
147.759441 96.035 -176.6154
148.830166 95.991 -176.6556
149.908651 95.942 -176.6738
150.994951 95.885 -176.6684
152.089123 95.820 -176.6381
153.191223 95.748 -176.5809
154.301310 95.667 -176.4953
155.419441 95.581 -176.3793
156.545674 95.490 -176.2313
157.680069 95.397 -176.0502
158.822683 95.304 -175.8351
159.973578 95.213 -175.5857
161.132813 95.124 -175.3023
162.300447 95.040 -174.9853
163.476543 94.961 -174.6353
164.661162 94.887 -174.2535
165.854364 94.820 -173.8415
167.056213 94.761 -173.4010
168.266772 94.709 -172.9345
169.486102 94.665 -172.4446
170.714268 94.630 -171.9342
171.951334 94.605 -171.4064
173.197364 94.589 -170.8645
174.452424 94.584 -170.3117
175.716578 94.588 -169.7513
176.989893 94.601 -169.1866
178.272434 94.623 -168.6207
179.564270 94.652 -168.0568
180.865467 94.686 -167.4979
182.176092 94.725 -166.9469
183.496216 94.767 -166.4065
184.825905 94.811 -165.8791
186.165229 94.856 -165.3666
187.514259 94.902 -164.8708
188.873065 94.948 -164.3929
190.241717 94.994 -163.9343
191.620287 95.042 -163.4958
193.008847 95.090 -163.0783
194.407468 95.140 -162.6820
195.816225 95.190 -162.3072
197.235190 95.242 -161.9538
198.664438 95.293 -161.6215
200.104042 95.345 -161.3098
201.554078 95.396 -161.0182
203.014622 95.446 -160.7457
204.485750 95.493 -160.4912
205.967538 95.537 -160.2530
207.460064 95.578 -160.0293
208.963405 95.615 -159.8182
210.477640 95.648 -159.6178
212.002848 95.677 -159.4267
213.539108 95.703 -159.2431
215.086500 95.726 -159.0661
216.645105 95.746 -158.8943
218.215005 95.763 -158.7268
219.796281 95.777 -158.5623
221.389015 95.789 -158.3995
222.993292 95.797 -158.2372
224.609193 95.801 -158.0743
226.236804 95.801 -157.9096
227.876209 95.797 -157.7424
229.527494 95.786 -157.5718
231.190745 95.771 -157.3975
232.866048 95.750 -157.2189
234.553491 95.724 -157.0357
236.253163 95.695 -156.8474
237.965150 95.662 -156.6542
239.689544 95.628 -156.4565
241.426433 95.592 -156.2551
243.175909 95.558 -156.0508
244.938062 95.525 -155.8448
246.712984 95.495 -155.6378
248.500768 95.469 -155.4305
250.301507 95.448 -155.2239
252.115295 95.433 -155.0186
253.942226 95.424 -154.8157
255.782396 95.422 -154.6166
257.635901 95.427 -154.4228
259.502837 95.441 -154.2364
261.383301 95.464 -154.0597
263.277392 95.495 -153.8956
265.185209 95.534 -153.7469
267.106850 95.582 -153.6168
269.042417 95.638 -153.5085
270.992009 95.701 -153.4246
272.955729 95.770 -153.3678
274.933678 95.844 -153.3399
276.925961 95.923 -153.3424
278.932681 96.004 -153.3758
280.953942 96.088 -153.4403
282.989850 96.173 -153.5353
285.040511 96.260 -153.6597
287.106032 96.347 -153.8120
289.186521 96.436 -153.9901
291.282086 96.526 -154.1920
293.392836 96.617 -154.4151
295.518881 96.710 -154.6562
297.660333 96.803 -154.9119
299.817302 96.897 -155.1780
301.989902 96.991 -155.4498
304.178245 97.082 -155.7225
306.382446 97.170 -155.9911
308.602620 97.253 -156.2509
310.838882 97.330 -156.4974
313.091348 97.400 -156.7267
315.360137 97.460 -156.9356
317.645367 97.512 -157.1211
319.947156 97.554 -157.2812
322.265625 97.586 -157.4144
324.600895 97.608 -157.5199
326.953086 97.620 -157.5978
329.322323 97.621 -157.6485
331.708729 97.614 -157.6733
334.112427 97.597 -157.6737
336.533543 97.571 -157.6517
338.972204 97.538 -157.6096
341.428536 97.497 -157.5501
343.902668 97.452 -157.4760
346.394729 97.403 -157.3904
348.904848 97.352 -157.2962
351.433156 97.301 -157.1969
353.979786 97.253 -157.0956
356.544869 97.210 -156.9957
359.128540 97.175 -156.9004
361.730934 97.152 -156.8126
364.352185 97.142 -156.7351
366.992431 97.147 -156.6703
369.651810 97.171 -156.6203
372.330459 97.214 -156.5869
375.028519 97.277 -156.5711
377.746130 97.359 -156.5741
380.483434 97.458 -156.5962
383.240574 97.574 -156.6377
386.017693 97.702 -156.6985
388.814937 97.840 -156.7781
391.632450 97.986 -156.8759
394.470380 98.135 -156.9910
397.328875 98.286 -157.1225
400.208084 98.436 -157.2693
403.108157 98.583 -157.4305
406.029245 98.726 -157.6051
408.971500 98.865 -157.7924
411.935076 99.000 -157.9917
414.920127 99.130 -158.2025
417.926810 99.256 -158.4243
420.955280 99.379 -158.6569
424.005695 99.500 -158.9000
427.078215 99.619 -159.1532
430.173000 99.736 -159.4166
433.290211 99.853 -159.6898
436.430010 99.968 -159.9729
439.592562 100.082 -160.2657
442.778031 100.192 -160.5681
445.986583 100.298 -160.8801
449.218386 100.397 -161.2016
452.473607 100.490 -161.5326
455.752418 100.573 -161.8729
459.054987 100.645 -162.2225
462.381489 100.706 -162.5812
465.732096 100.755 -162.9491
469.106983 100.791 -163.3260
472.506325 100.815 -163.7115
475.930301 100.826 -164.1053
479.379088 100.826 -164.5068
482.852867 100.815 -164.9150
486.351817 100.794 -165.3287
489.876123 100.765 -165.7466
493.425968 100.727 -166.1668
497.001536 100.681 -166.5873
500.603014 100.628 -167.0056
504.230589 100.568 -167.4189
507.884452 100.501 -167.8241
511.564792 100.427 -168.2178
515.271802 100.346 -168.5963
519.005673 100.259 -168.9561
522.766602 100.166 -169.2934
526.554785 100.070 -169.6052
530.370418 99.972 -169.8888
534.213700 99.875 -170.1424
538.084833 99.781 -170.3653
541.984018 99.694 -170.5578
545.911457 99.614 -170.7216
549.867357 99.545 -170.8593
553.851922 99.486 -170.9742
557.865362 99.439 -171.0707
561.907884 99.402 -171.1532
565.979700 99.374 -171.2264
570.081022 99.353 -171.2950
574.212064 99.337 -171.3633
578.373042 99.323 -171.4350
582.564171 99.310 -171.5136
586.785671 99.296 -171.6019
591.037762 99.278 -171.7022
595.320665 99.255 -171.8166
599.634604 99.226 -171.9465
603.979804 99.191 -172.0934
608.356491 99.149 -172.2584
612.764893 99.100 -172.4424
617.205240 99.045 -172.6459
621.677763 98.983 -172.8695
626.182696 98.916 -173.1136
630.720274 98.846 -173.3783
635.290733 98.772 -173.6636
639.894312 98.697 -173.9692
644.531250 98.621 -174.2946
649.201789 98.546 -174.6385
653.906173 98.473 -174.9995
658.644647 98.400 -175.3752
663.417457 98.328 -175.7626
668.224854 98.256 -176.1579
673.067086 98.181 -176.5565
677.944408 98.104 -176.9527
682.857073 98.020 -177.3398
687.805336 97.929 -177.7101
692.789457 97.829 -178.0548
697.809695 97.717 -178.3643
702.866312 97.594 -178.6284
707.959571 97.458 -178.8366
713.089738 97.310 -178.9783
718.257080 97.149 -179.0437
723.461867 96.977 -179.0237
728.704370 96.796 -178.9107
733.984862 96.606 -178.6985
739.303619 96.410 -178.3826
744.660918 96.211 -177.9602
750.057038 96.010 -177.4298
755.492260 95.811 -176.7912
760.966869 95.615 -176.0454
766.481148 95.424 -175.1950
772.035387 95.240 -174.2436
777.629873 95.065 -173.1971
783.264900 94.899 -172.0633
788.940760 94.743 -170.8529
794.657750 94.598 -169.5793
800.416168 94.465 -168.2586
806.216313 94.343 -166.9088
812.058489 94.232 -165.5488
817.943000 94.133 -164.1977
823.870152 94.043 -162.8728
829.840255 93.963 -161.5897
835.853619 93.892 -160.3611
841.910559 93.830 -159.1968
848.011390 93.776 -158.1035
854.156430 93.730 -157.0851
860.346000 93.690 -156.1425
866.580422 93.658 -155.2742
872.860020 93.631 -154.4767
879.185124 93.611 -153.7446
885.556062 93.598 -153.0715
891.973166 93.590 -152.4505
898.436771 93.591 -151.8750
904.947215 93.599 -151.3388
911.504835 93.616 -150.8373
918.109975 93.642 -150.3674
924.762978 93.680 -149.9281
931.464192 93.728 -149.5198
938.213966 93.788 -149.1445
945.012651 93.859 -148.8049
951.860602 93.939 -148.5038
958.758176 94.029 -148.2437
965.705733 94.125 -148.0262
972.703635 94.227 -147.8514
979.752246 94.333 -147.7185
986.851935 94.441 -147.6251
994.003071 94.551 -147.5678
1001.206027 94.661 -147.5424
1008.461179 94.771 -147.5441
1015.768904 94.882 -147.5676
1023.129584 94.993 -147.6076
1030.543603 95.105 -147.6588
1038.011347 95.220 -147.7163
1045.533205 95.339 -147.7762
1053.109569 95.462 -147.8359
1060.740836 95.589 -147.8947
1068.427401 95.722 -147.9543
1076.169666 95.859 -148.0191
1083.968035 95.999 -148.0950
1091.822915 96.141 -148.1884
1099.734713 96.280 -148.3041
1107.703844 96.414 -148.4449
1115.730723 96.540 -148.6096
1123.815768 96.655 -148.7934
1131.959400 96.757 -148.9874
1140.162045 96.844 -149.1794
1148.424129 96.916 -149.3545
1156.746083 96.974 -149.4969
1165.128342 97.021 -149.5915
1173.571343 97.059 -149.6257
1182.075524 97.091 -149.5913
1190.641331 97.123 -149.4856
1199.269209 97.157 -149.3120
1207.959608 97.198 -149.0794
1216.712981 97.248 -148.8011
1225.529785 97.307 -148.4928
1234.410479 97.377 -148.1708
1243.355526 97.457 -147.8506
1252.365393 97.545 -147.5455
1261.440549 97.639 -147.2659
1270.581467 97.737 -147.0187
1279.788624 97.838 -146.8078
1289.062500 97.939 -146.6340
1298.403578 98.039 -146.4961
1307.812346 98.139 -146.3910
1317.289293 98.237 -146.3150
1326.834914 98.334 -146.2646
1336.449707 98.430 -146.2373
1346.134173 98.527 -146.2329
1355.888816 98.623 -146.2544
1365.714145 98.721 -146.3085
1375.610673 98.818 -146.4046
1385.578915 98.915 -146.5538
1395.619391 99.010 -146.7660
1405.732624 99.100 -147.0493
1415.919142 99.184 -147.4083
1426.179476 99.259 -147.8447
1436.514160 99.326 -148.3567
1446.923734 99.381 -148.9400
1457.408740 99.425 -149.5874
1467.969724 99.456 -150.2901
1478.607238 99.474 -151.0370
1489.321836 99.478 -151.8157
1500.114076 99.469 -152.6118
1510.984521 99.444 -153.4090
1521.933737 99.404 -154.1886
1532.962297 99.347 -154.9297
1544.070773 99.275 -155.6089
1555.259747 99.186 -156.2007
1566.529800 99.083 -156.6782
1577.881521 98.966 -157.0154
1589.315501 98.840 -157.1886
1600.832336 98.708 -157.1801
1612.432627 98.576 -156.9806
1624.116978 98.447 -156.5910
1635.886000 98.329 -156.0232
1647.740304 98.226 -155.2988
1659.680509 98.141 -154.4479
1671.707238 98.079 -153.5063
1683.821118 98.041 -152.5132
1696.022780 98.027 -151.5078
1708.312860 98.037 -150.5265
1720.692000 98.069 -149.6001
1733.160843 98.119 -148.7525
1745.720041 98.184 -147.9996
1758.370248 98.260 -147.3494
1771.112124 98.342 -146.8029
1783.946332 98.429 -146.3554
1796.873543 98.515 -145.9979
1809.894429 98.599 -145.7198
1823.009670 98.678 -145.5103
1836.219950 98.752 -145.3594
1849.525956 98.819 -145.2590
1862.928384 98.879 -145.2013
1876.427931 98.931 -145.1783
1890.025301 98.975 -145.1810
1903.721204 99.011 -145.2006
1917.516352 99.040 -145.2295
1931.411466 99.062 -145.2616
1945.407270 99.078 -145.2935
1959.504493 99.089 -145.3229
1973.703870 99.093 -145.3482
1988.006142 99.091 -145.3680
2002.412054 99.082 -145.3801
2016.922357 99.066 -145.3829
2031.537808 99.042 -145.3751
2046.259169 99.011 -145.3575
2061.087206 98.973 -145.3323
2076.022694 98.927 -145.3036
2091.066410 98.873 -145.2760
2106.219139 98.812 -145.2540
2121.481671 98.744 -145.2406
2136.854802 98.669 -145.2376
2152.339333 98.588 -145.2453
2167.936071 98.502 -145.2638
2183.645829 98.412 -145.2935
2199.469427 98.319 -145.3355
2215.407689 98.225 -145.3917
2231.461446 98.129 -145.4648
2247.631536 98.033 -145.5576
2263.918800 97.936 -145.6723
2280.324089 97.838 -145.8098
2296.848258 97.739 -145.9703
2313.492167 97.637 -146.1523
2330.256685 97.530 -146.3531
2347.142685 97.418 -146.5683
2364.151049 97.298 -146.7917
2381.282662 97.169 -147.0142
2398.538418 97.029 -147.2238
2415.919216 96.876 -147.4046
2433.425962 96.710 -147.5353
2451.059570 96.527 -147.5884
2468.820958 96.329 -147.5284
2486.711052 96.114 -147.3120
2504.730786 95.887 -146.8888
2522.881098 95.649 -146.2057
2541.162934 95.410 -145.2126
2559.577248 95.178 -143.8720
2578.125000 94.966 -142.1694
2596.807157 94.787 -140.1237
2615.624692 94.655 -137.7918
2634.578586 94.580 -135.2654
2653.669829 94.569 -132.6566
2672.899414 94.621 -130.0772
2692.268345 94.734 -127.6202
2711.777632 94.899 -125.3482
2731.428290 95.107 -123.2922
2751.221345 95.349 -121.4580
2771.157829 95.617 -119.8360
2791.238781 95.905 -118.4106
2811.465248 96.206 -117.1682
2831.838284 96.515 -116.1002
2852.358952 96.826 -115.2035
2873.028321 97.136 -114.4774
2893.847468 97.439 -113.9199
2914.817480 97.729 -113.5244
2935.939449 98.004 -113.2778
2957.214476 98.261 -113.1611
2978.643672 98.497 -113.1513
3000.228152 98.713 -113.2240
3021.969041 98.909 -113.3566
