* Measurement data measured by REW V5.31.3
* Source: EXCL: Headset (USB-C to 3.5mm Headphone Jack Adapter), MICROPHONE (Master Volume), 0, volume: 0.260
* Format: 256k Log Swept Sine, 1 sweep at -12.0 dBFS with no timing reference
* Dated: Feb 10, 2025 1:43:24 PM
* REW Settings:
*  C-weighting compensation: Off
*  Target level: 75.0 dB
* Note: ; 
* Measurement: Maxwell L5
* Smoothing: 1/6 octave
* Frequency Step: 96 ppo
* Start Frequency: 20.0 Hz
*
* Freq(Hz) SPL(dB) Phase(degrees)
20.141602 98.285 22.9711
20.287556 98.338 22.5406
20.434568 98.407 21.9726
20.582645 98.486 21.2901
20.731796 98.571 20.5169
20.882027 98.656 19.6752
21.033346 98.737 18.7836
21.185763 98.812 17.8568
21.339284 98.879 16.9051
21.493917 98.937 15.9349
21.649671 98.985 14.9493
21.806553 99.025 13.9483
21.964572 99.057 12.9297
22.123737 99.084 11.8897
22.284054 99.108 10.8237
22.445534 99.131 9.7266
22.608183 99.153 8.5934
22.772012 99.179 7.4202
22.937027 99.209 6.2042
23.103238 99.244 4.9443
23.270654 99.286 3.6412
23.439282 99.336 2.2978
23.609133 99.394 0.9186
23.780215 99.462 -0.4902
23.952536 99.538 -1.9214
24.126106 99.624 -3.3676
24.300934 99.718 -4.8212
24.477028 99.820 -6.2758
24.654399 99.929 -7.7261
24.833055 100.044 -9.1684
25.013005 100.163 -10.6010
25.194260 100.284 -12.0237
25.376828 100.406 -13.4379
25.560719 100.526 -14.8462
25.745942 100.644 -16.2517
25.932508 100.757 -17.6579
26.120426 100.864 -19.0679
26.309705 100.965 -20.4844
26.500356 101.058 -21.9091
26.692388 101.144 -23.3429
26.885812 101.222 -24.7856
27.080638 101.293 -26.2361
27.276876 101.357 -27.6924
27.474535 101.414 -29.1518
27.673627 101.467 -30.6109
27.874161 101.517 -32.0660
28.076149 101.566 -33.5134
28.279600 101.616 -34.9494
28.484526 101.671 -36.3710
28.690937 101.734 -37.7763
28.898843 101.808 -39.1646
29.108256 101.895 -40.5368
29.319186 101.999 -41.8959
29.531645 102.120 -43.2459
29.745644 102.257 -44.5925
29.961193 102.409 -45.9417
30.178304 102.573 -47.2992
30.396989 102.743 -48.6697
30.617258 102.915 -50.0562
30.839123 103.083 -51.4590
31.062596 103.240 -52.8764
31.287688 103.380 -54.3042
31.514412 103.499 -55.7364
31.742778 103.591 -57.1662
31.972800 103.655 -58.5867
32.204488 103.687 -59.9914
32.437855 103.687 -61.3750
32.672913 103.654 -62.7338
32.909674 103.588 -64.0653
33.148151 103.493 -65.3683
33.388356 103.369 -66.6425
33.630302 103.220 -67.8877
33.874001 103.050 -69.1036
34.119466 102.862 -70.2895
34.366710 102.660 -71.4440
34.615745 102.449 -72.5654
34.866585 102.233 -73.6517
35.119243 102.018 -74.7012
35.373731 101.807 -75.7128
35.630064 101.606 -76.6863
35.888254 101.419 -77.6228
36.148315 101.251 -78.5245
36.410261 101.104 -79.3947
36.674104 100.982 -80.2378
36.939860 100.888 -81.0583
37.207542 100.823 -81.8609
37.477163 100.787 -82.6504
37.748738 100.781 -83.4307
38.022281 100.805 -84.2051
38.297806 100.857 -84.9759
38.575327 100.936 -85.7450
38.854860 101.041 -86.5134
39.136419 101.169 -87.2818
39.420017 101.320 -88.0507
39.705671 101.493 -88.8212
39.993395 101.685 -89.5947
40.283203 101.896 -90.3736
40.575112 102.124 -91.1609
40.869136 102.367 -91.9606
41.165290 102.625 -92.7776
41.463591 102.894 -93.6169
41.764053 103.172 -94.4840
42.066693 103.456 -95.3845
42.371525 103.744 -96.3237
42.678567 104.033 -97.3063
42.987834 104.318 -98.3364
43.299341 104.597 -99.4167
43.613106 104.866 -100.5488
43.929145 105.123 -101.7325
44.247473 105.365 -102.9664
44.568109 105.589 -104.2475
44.891068 105.793 -105.5716
45.216367 105.976 -106.9337
45.544023 106.135 -108.3279
45.874054 106.270 -109.7480
46.206476 106.380 -111.1870
46.541307 106.465 -112.6372
46.878565 106.523 -114.0905
47.218266 106.557 -115.5388
47.560429 106.565 -116.9739
47.905072 106.551 -118.3883
48.252212 106.515 -119.7760
48.601867 106.458 -121.1324
48.954056 106.385 -122.4549
49.308798 106.296 -123.7427
49.666109 106.195 -124.9965
50.026010 106.083 -126.2182
50.388520 105.963 -127.4101
50.753656 105.837 -128.5746
51.121437 105.707 -129.7138
51.491884 105.574 -130.8293
51.865016 105.441 -131.9220
52.240851 105.307 -132.9920
52.619410 105.174 -134.0389
53.000712 105.042 -135.0616
53.384777 104.912 -136.0586
53.771625 104.782 -137.0278
54.161276 104.654 -137.9671
54.553751 104.526 -138.8739
54.949070 104.397 -139.7462
55.347254 104.268 -140.5816
55.748323 104.136 -141.3784
56.152298 104.003 -142.1348
56.559201 103.866 -142.8497
56.969052 103.727 -143.5225
57.381873 103.585 -144.1529
57.797686 103.440 -144.7408
58.216512 103.292 -145.2869
58.638373 103.143 -145.7917
59.063291 102.992 -146.2567
59.491288 102.841 -146.6837
59.922386 102.691 -147.0753
60.356608 102.542 -147.4348
60.793977 102.396 -147.7657
61.234515 102.252 -148.0718
61.678246 102.112 -148.3565
62.125192 101.976 -148.6231
62.575377 101.845 -148.8744
63.028824 101.718 -149.1128
63.485557 101.597 -149.3404
63.945599 101.481 -149.5592
64.408975 101.370 -149.7710
64.875709 101.266 -149.9775
65.345825 101.168 -150.1804
65.819348 101.076 -150.3811
66.296302 100.991 -150.5809
66.776713 100.912 -150.7806
67.260604 100.839 -150.9810
67.748002 100.772 -151.1826
68.238932 100.711 -151.3859
68.733420 100.655 -151.5911
69.231490 100.604 -151.7981
69.733170 100.557 -152.0069
70.238485 100.515 -152.2173
70.747463 100.477 -152.4293
71.260128 100.442 -152.6430
71.776508 100.410 -152.8589
72.296630 100.381 -153.0779
72.820521 100.354 -153.3008
73.348209 100.330 -153.5287
73.879720 100.308 -153.7623
74.415083 100.287 -154.0023
74.954326 100.268 -154.2490
75.497475 100.250 -154.5024
76.044561 100.232 -154.7623
76.595612 100.214 -155.0284
77.150655 100.196 -155.2999
77.709720 100.177 -155.5765
78.272837 100.156 -155.8578
78.840034 100.133 -156.1435
79.411342 100.108 -156.4337
79.986789 100.080 -156.7289
80.566406 100.048 -157.0295
81.150224 100.013 -157.3362
81.738272 99.974 -157.6493
82.330581 99.932 -157.9690
82.927182 99.888 -158.2951
83.528107 99.842 -158.6270
84.133386 99.796 -158.9639
84.743051 99.752 -159.3050
85.357134 99.713 -159.6495
85.975667 99.682 -159.9966
86.598682 99.662 -160.3453
87.226212 99.656 -160.6950
87.858289 99.668 -161.0445
88.494946 99.700 -161.3924
89.136217 99.754 -161.7372
89.782135 99.832 -162.0772
90.432733 99.932 -162.4109
91.088046 100.052 -162.7369
91.748108 100.190 -163.0543
92.412952 100.341 -163.3624
93.082615 100.499 -163.6607
93.757130 100.661 -163.9492
94.436533 100.819 -164.2277
95.120859 100.971 -164.4961
95.810144 101.110 -164.7544
96.504423 101.235 -165.0024
97.203734 101.344 -165.2399
97.908112 101.435 -165.4668
98.617595 101.508 -165.6830
99.332219 101.565 -165.8882
100.052021 101.607 -166.0825
100.777039 101.636 -166.2657
101.507311 101.655 -166.4379
102.242875 101.665 -166.5989
102.983769 101.669 -166.7490
103.730032 101.668 -166.8883
104.481702 101.662 -167.0170
105.238820 101.652 -167.1355
106.001424 101.638 -167.2442
106.769554 101.617 -167.3437
107.543250 101.590 -167.4347
108.322553 101.555 -167.5181
109.107503 101.510 -167.5949
109.898141 101.453 -167.6663
110.694508 101.385 -167.7335
111.496646 101.304 -167.7977
112.304596 101.212 -167.8599
113.118402 101.108 -167.9213
113.938104 100.995 -167.9829
114.763747 100.875 -168.0457
115.595372 100.749 -168.1105
116.433024 100.620 -168.1781
117.276746 100.490 -168.2492
118.126581 100.361 -168.3242
118.982575 100.234 -168.4036
119.844772 100.110 -168.4876
120.713217 99.990 -168.5762
121.587954 99.873 -168.6696
122.469031 99.760 -168.7675
123.356492 99.648 -168.8703
124.250384 99.537 -168.9785
125.150753 99.425 -169.0929
126.057647 99.311 -169.2146
126.971113 99.192 -169.3445
127.891198 99.068 -169.4839
128.817950 98.938 -169.6334
129.751418 98.801 -169.7937
130.691651 98.656 -169.9649
131.638696 98.506 -170.1469
132.592604 98.350 -170.3392
133.553425 98.190 -170.5412
134.521208 98.029 -170.7516
135.496004 97.869 -170.9691
136.477864 97.714 -171.1918
137.466839 97.567 -171.4179
138.462981 97.431 -171.6452
139.466340 97.308 -171.8717
140.476971 97.201 -172.0953
141.494925 97.110 -172.3143
142.520256 97.035 -172.5266
143.553016 96.974 -172.7305
144.593260 96.925 -172.9241
145.641043 96.884 -173.1054
146.696418 96.848 -173.2725
147.759441 96.812 -173.4235
148.830166 96.773 -173.5566
149.908651 96.729 -173.6701
150.994951 96.677 -173.7622
152.089123 96.617 -173.8313
153.191223 96.547 -173.8756
154.301310 96.469 -173.8935
155.419441 96.385 -173.8832
156.545674 96.295 -173.8428
157.680069 96.201 -173.7707
158.822683 96.107 -173.6653
159.973578 96.013 -173.5254
161.132813 95.921 -173.3501
162.300447 95.832 -173.1389
163.476543 95.748 -172.8921
164.661162 95.669 -172.6104
165.854364 95.596 -172.2955
167.056213 95.529 -171.9492
168.266772 95.470 -171.5740
169.486102 95.418 -171.1727
170.714268 95.375 -170.7484
171.951334 95.341 -170.3041
173.197364 95.316 -169.8431
174.452424 95.300 -169.3685
175.716578 95.294 -168.8836
176.989893 95.296 -168.3914
178.272434 95.307 -167.8949
179.564270 95.324 -167.3973
180.865467 95.347 -166.9014
182.176092 95.374 -166.4100
183.496216 95.403 -165.9256
184.825905 95.435 -165.4504
186.165229 95.467 -164.9862
187.514259 95.499 -164.5346
188.873065 95.532 -164.0970
190.241717 95.565 -163.6744
191.620287 95.599 -163.2678
193.008847 95.634 -162.8782
194.407468 95.669 -162.5060
195.816225 95.705 -162.1510
197.235190 95.742 -161.8122
198.664438 95.779 -161.4874
200.104042 95.815 -161.1736
201.554078 95.850 -160.8674
203.014622 95.883 -160.5657
204.485750 95.914 -160.2659
205.967538 95.942 -159.9664
207.460064 95.966 -159.6673
208.963405 95.987 -159.3700
210.477640 96.004 -159.0772
212.002848 96.017 -158.7930
213.539108 96.027 -158.5224
215.086500 96.035 -158.2703
216.645105 96.040 -158.0409
218.215005 96.043 -157.8362
219.796281 96.044 -157.6549
221.389015 96.043 -157.4928
222.993292 96.039 -157.3432
224.609193 96.031 -157.1988
226.236804 96.019 -157.0534
227.876209 96.002 -156.9025
229.527494 95.979 -156.7434
231.190745 95.949 -156.5748
232.866048 95.914 -156.3957
234.553491 95.873 -156.2060
236.253163 95.828 -156.0051
237.965150 95.779 -155.7922
239.689544 95.729 -155.5664
241.426433 95.678 -155.3268
243.175909 95.628 -155.0728
244.938062 95.580 -154.8051
246.712984 95.535 -154.5253
248.500768 95.495 -154.2358
250.301507 95.460 -153.9394
252.115295 95.431 -153.6387
253.942226 95.408 -153.3359
255.782396 95.393 -153.0323
257.635901 95.385 -152.7284
259.502837 95.384 -152.4248
261.383301 95.391 -152.1215
263.277392 95.407 -151.8192
265.185209 95.431 -151.5188
267.106850 95.464 -151.2216
269.042417 95.505 -150.9296
270.992009 95.553 -150.6449
272.955729 95.610 -150.3702
274.933678 95.673 -150.1082
276.925961 95.742 -149.8621
278.932681 95.817 -149.6353
280.953942 95.897 -149.4310
282.989850 95.983 -149.2522
285.040511 96.073 -149.1015
287.106032 96.169 -148.9804
289.186521 96.270 -148.8899
291.282086 96.377 -148.8300
293.392836 96.490 -148.8006
295.518881 96.608 -148.8006
297.660333 96.731 -148.8292
299.817302 96.859 -148.8854
301.989902 96.989 -148.9680
304.178245 97.120 -149.0756
306.382446 97.249 -149.2070
308.602620 97.376 -149.3607
310.838882 97.497 -149.5352
313.091348 97.610 -149.7289
315.360137 97.715 -149.9398
317.645367 97.809 -150.1657
319.947156 97.892 -150.4036
322.265625 97.962 -150.6505
324.600895 98.018 -150.9025
326.953086 98.059 -151.1557
329.322323 98.086 -151.4056
331.708729 98.099 -151.6477
334.112427 98.096 -151.8773
336.533543 98.080 -152.0900
338.972204 98.049 -152.2818
341.428536 98.007 -152.4489
343.902668 97.953 -152.5887
346.394729 97.891 -152.6990
348.904848 97.822 -152.7790
351.433156 97.749 -152.8286
353.979786 97.675 -152.8487
356.544869 97.603 -152.8410
359.128540 97.536 -152.8078
361.730934 97.478 -152.7516
364.352185 97.434 -152.6755
366.992431 97.404 -152.5825
369.651810 97.394 -152.4759
372.330459 97.403 -152.3587
375.028519 97.434 -152.2341
377.746130 97.487 -152.1049
380.483434 97.560 -151.9737
383.240574 97.652 -151.8430
386.017693 97.760 -151.7150
388.814937 97.881 -151.5919
391.632450 98.013 -151.4760
394.470380 98.153 -151.3694
397.328875 98.296 -151.2741
400.208084 98.441 -151.1914
403.108157 98.586 -151.1223
406.029245 98.729 -151.0673
408.971500 98.871 -151.0271
411.935076 99.009 -151.0024
414.920127 99.145 -150.9940
417.926810 99.279 -151.0025
420.955280 99.411 -151.0284
424.005695 99.542 -151.0712
427.078215 99.673 -151.1300
430.173000 99.804 -151.2036
433.290211 99.935 -151.2910
436.430010 100.065 -151.3916
439.592562 100.194 -151.5048
442.778031 100.321 -151.6304
445.986583 100.443 -151.7685
449.218386 100.561 -151.9187
452.473607 100.671 -152.0808
455.752418 100.773 -152.2548
459.054987 100.864 -152.4402
462.381489 100.945 -152.6370
465.732096 101.015 -152.8447
469.106983 101.073 -153.0632
472.506325 101.120 -153.2922
475.930301 101.155 -153.5313
479.379088 101.181 -153.7803
482.852867 101.198 -154.0388
486.351817 101.206 -154.3065
489.876123 101.208 -154.5832
493.425968 101.203 -154.8687
497.001536 101.193 -155.1629
500.603014 101.177 -155.4659
504.230589 101.157 -155.7778
507.884452 101.132 -156.0988
511.564792 101.102 -156.4293
515.271802 101.068 -156.7697
519.005673 101.029 -157.1201
522.766602 100.986 -157.4806
526.554785 100.939 -157.8512
530.370418 100.892 -158.2310
534.213700 100.844 -158.6190
538.084833 100.798 -159.0133
541.984018 100.755 -159.4113
545.911457 100.717 -159.8109
549.867357 100.686 -160.2102
553.851922 100.660 -160.6079
557.865362 100.641 -161.0034
561.907884 100.627 -161.3957
565.979700 100.615 -161.7838
570.081022 100.604 -162.1658
574.212064 100.592 -162.5394
578.373042 100.576 -162.9016
582.564171 100.554 -163.2491
586.785671 100.525 -163.5786
591.037762 100.487 -163.8873
595.320665 100.440 -164.1726
599.634604 100.385 -164.4330
603.979804 100.319 -164.6674
608.356491 100.246 -164.8758
612.764893 100.164 -165.0593
617.205240 100.076 -165.2197
621.677763 99.982 -165.3596
626.182696 99.885 -165.4825
630.720274 99.786 -165.5921
635.290733 99.686 -165.6921
639.894312 99.588 -165.7859
644.531250 99.493 -165.8764
649.201789 99.403 -165.9659
653.906173 99.317 -166.0554
658.644647 99.237 -166.1453
663.417457 99.163 -166.2349
668.224854 99.093 -166.3225
673.067086 99.026 -166.4056
677.944408 98.960 -166.4808
682.857073 98.894 -166.5441
687.805336 98.826 -166.5907
692.789457 98.754 -166.6156
697.809695 98.677 -166.6136
702.866312 98.594 -166.5790
707.959571 98.503 -166.5067
713.089738 98.406 -166.3913
718.257080 98.302 -166.2281
723.461867 98.191 -166.0127
728.704370 98.075 -165.7415
733.984862 97.955 -165.4119
739.303619 97.833 -165.0223
744.660918 97.710 -164.5723
750.057038 97.588 -164.0628
755.492260 97.470 -163.4963
760.966869 97.356 -162.8766
766.481148 97.247 -162.2093
772.035387 97.145 -161.5016
777.629873 97.050 -160.7621
783.264900 96.962 -160.0005
788.940760 96.880 -159.2269
794.657750 96.804 -158.4516
800.416168 96.732 -157.6842
806.216313 96.663 -156.9335
812.058489 96.596 -156.2068
817.943000 96.529 -155.5100
823.870152 96.462 -154.8475
829.840255 96.395 -154.2219
835.853619 96.326 -153.6346
841.910559 96.256 -153.0858
848.011390 96.184 -152.5741
854.156430 96.112 -152.0970
860.346000 96.038 -151.6507
866.580422 95.964 -151.2299
872.860020 95.890 -150.8277
879.185124 95.816 -150.4358
885.556062 95.743 -150.0449
891.973166 95.674 -149.6457
898.436771 95.609 -149.2294
904.947215 95.550 -148.7894
911.504835 95.501 -148.3217
918.109975 95.462 -147.8263
924.762978 95.438 -147.3066
931.464192 95.428 -146.7698
938.213966 95.435 -146.2253
945.012651 95.459 -145.6839
951.860602 95.500 -145.1569
958.758176 95.556 -144.6546
965.705733 95.627 -144.1857
972.703635 95.710 -143.7573
979.752246 95.803 -143.3740
986.851935 95.905 -143.0389
994.003071 96.014 -142.7534
1001.206027 96.129 -142.5178
1008.461179 96.249 -142.3315
1015.768904 96.373 -142.1936
1023.129584 96.501 -142.1028
1030.543603 96.633 -142.0580
1038.011347 96.768 -142.0577
1045.533205 96.907 -142.1006
1053.109569 97.049 -142.1850
1060.740836 97.193 -142.3090
1068.427401 97.339 -142.4704
1076.169666 97.484 -142.6664
1083.968035 97.627 -142.8939
1091.822915 97.766 -143.1489
1099.734713 97.898 -143.4267
1107.703844 98.021 -143.7216
1115.730723 98.133 -144.0264
1123.815768 98.231 -144.3318
1131.959400 98.314 -144.6269
1140.162045 98.380 -144.8982
1148.424129 98.430 -145.1306
1156.746083 98.464 -145.3076
1165.128342 98.485 -145.4124
1173.571343 98.494 -145.4294
1182.075524 98.497 -145.3454
1190.641331 98.496 -145.1514
1199.269209 98.498 -144.8439
1207.959608 98.506 -144.4260
1216.712981 98.525 -143.9080
1225.529785 98.559 -143.3069
1234.410479 98.608 -142.6456
1243.355526 98.674 -141.9509
1252.365393 98.756 -141.2502
1261.440549 98.853 -140.5694
1270.581467 98.962 -139.9301
1279.788624 99.079 -139.3485
1289.062500 99.203 -138.8355
1298.403578 99.331 -138.3967
1307.812346 99.461 -138.0340
1317.289293 99.592 -137.7466
1326.834914 99.723 -137.5320
1336.449707 99.852 -137.3875
1346.134173 99.978 -137.3097
1355.888816 100.102 -137.2960
1365.714145 100.222 -137.3438
1375.610673 100.337 -137.4509
1385.578915 100.447 -137.6151
1395.619391 100.550 -137.8344
1405.732624 100.645 -138.1059
1415.919142 100.732 -138.4263
1426.179476 100.810 -138.7911
1436.514160 100.880 -139.1950
1446.923734 100.940 -139.6314
1457.408740 100.992 -140.0929
1467.969724 101.035 -140.5716
1478.607238 101.070 -141.0586
1489.321836 101.099 -141.5455
1500.114076 101.121 -142.0238
1510.984521 101.138 -142.4864
1521.933737 101.150 -142.9277
1532.962297 101.158 -143.3442
1544.070773 101.162 -143.7345
1555.259747 101.163 -144.0981
1566.529800 101.160 -144.4344
1577.881521 101.152 -144.7418
1589.315501 101.140 -145.0169
1600.832336 101.123 -145.2547
1612.432627 101.100 -145.4495
1624.116978 101.074 -145.5955
1635.886000 101.045 -145.6881
1647.740304 101.015 -145.7253
1659.680509 100.985 -145.7077
1671.707238 100.958 -145.6393
1683.821118 100.934 -145.5268
1696.022780 100.916 -145.3786
1708.312860 100.903 -145.2036
1720.692000 100.897 -145.0101
1733.160843 100.896 -144.8049
1745.720041 100.901 -144.5930
1758.370248 100.911 -144.3778
1771.112124 100.925 -144.1622
1783.946332 100.943 -143.9492
1796.873543 100.963 -143.7434
1809.894429 100.987 -143.5508
1823.009670 101.011 -143.3790
1836.219950 101.036 -143.2353
1849.525956 101.059 -143.1254
1862.928384 101.078 -143.0511
1876.427931 101.093 -143.0103
1890.025301 101.101 -142.9964
1903.721204 101.102 -142.9995
1917.516352 101.095 -143.0075
1931.411466 101.079 -143.0081
1945.407270 101.056 -142.9891
1959.504493 101.026 -142.9401
1973.703870 100.988 -142.8523
1988.006142 100.944 -142.7184
2002.412054 100.892 -142.5326
2016.922357 100.835 -142.2910
2031.537808 100.771 -141.9915
2046.259169 100.703 -141.6343
2061.087206 100.630 -141.2229
2076.022694 100.554 -140.7635
2091.066410 100.476 -140.2651
2106.219139 100.397 -139.7384
2121.481671 100.319 -139.1946
2136.854802 100.243 -138.6450
2152.339333 100.171 -138.1005
2167.936071 100.103 -137.5715
2183.645829 100.040 -137.0681
2199.469427 99.984 -136.5990
2215.407689 99.934 -136.1715
2231.461446 99.891 -135.7902
2247.631536 99.853 -135.4574
2263.918800 99.820 -135.1727
2280.324089 99.791 -134.9336
2296.848258 99.764 -134.7365
2313.492167 99.740 -134.5775
2330.256685 99.716 -134.4532
2347.142685 99.692 -134.3613
2364.151049 99.668 -134.3009
2381.282662 99.643 -134.2722
2398.538418 99.614 -134.2756
2415.919216 99.582 -134.3103
2433.425962 99.543 -134.3720
2451.059570 99.496 -134.4515
2468.820958 99.438 -134.5325
2486.711052 99.369 -134.5919
2504.730786 99.288 -134.5990
2522.881098 99.195 -134.5173
2541.162934 99.093 -134.3069
2559.577248 98.987 -133.9278
2578.125000 98.883 -133.3459
2596.807157 98.791 -132.5398
2615.624692 98.720 -131.5074
2634.578586 98.681 -130.2716
2653.669829 98.684 -128.8808
2672.899414 98.732 -127.4040
2692.268345 98.829 -125.9198
2711.777632 98.971 -124.5035
2731.428290 99.151 -123.2155
2751.221345 99.361 -122.0946
2771.157829 99.592 -121.1573
2791.238781 99.836 -120.4018
2811.465248 100.087 -119.8143
2831.838284 100.338 -119.3756
2852.358952 100.587 -119.0664
2873.028321 100.828 -118.8701
2893.847468 101.061 -118.7741
2914.817480 101.282 -118.7682
2935.939449 101.489 -118.8424
2957.214476 101.679 -118.9854
