* Measurement data measured by REW V5.31.3
* Source: EXCL: Headset (USB-C to 3.5mm Headphone Jack Adapter), MICROPHONE (Master Volume), 0, volume: 0.260
* Format: 256k Log Swept Sine, 1 sweep at -12.0 dBFS with no timing reference
* Dated: Feb 10, 2025 1:50:57 PM
* REW Settings:
*  C-weighting compensation: Off
*  Target level: 75.0 dB
* Note: ; 
* Measurement: Maxwell R2
* Smoothing: 1/6 octave
* Frequency Step: 96 ppo
* Start Frequency: 20.0 Hz
*
* Freq(Hz) SPL(dB) Phase(degrees)
20.141602 98.610 29.1244
20.287556 98.664 28.5420
20.434568 98.733 27.7749
20.582645 98.814 26.8572
20.731796 98.902 25.8248
20.882027 98.993 24.7124
21.033346 99.084 23.5509
21.185763 99.172 22.3659
21.339284 99.255 21.1773
21.493917 99.333 19.9989
21.649671 99.405 18.8393
21.806553 99.470 17.7020
21.964572 99.531 16.5868
22.123737 99.587 15.4898
22.284054 99.638 14.4053
22.445534 99.687 13.3254
22.608183 99.734 12.2416
22.772012 99.779 11.1449
22.937027 99.824 10.0267
23.103238 99.871 8.8790
23.270654 99.920 7.6948
23.439282 99.973 6.4685
23.609133 100.032 5.1960
23.780215 100.098 3.8750
23.952536 100.173 2.5046
24.126106 100.258 1.0859
24.300934 100.356 -0.3783
24.477028 100.465 -1.8840
24.654399 100.585 -3.4255
24.833055 100.716 -4.9964
25.013005 100.856 -6.5892
25.194260 101.003 -8.1962
25.376828 101.153 -9.8093
25.560719 101.304 -11.4211
25.745942 101.454 -13.0248
25.932508 101.599 -14.6147
26.120426 101.736 -16.1864
26.309705 101.865 -17.7374
26.500356 101.984 -19.2669
26.692388 102.093 -20.7760
26.885812 102.190 -22.2675
27.080638 102.277 -23.7457
27.276876 102.354 -25.2157
27.474535 102.422 -26.6830
27.673627 102.484 -28.1526
27.874161 102.541 -29.6286
28.076149 102.596 -31.1136
28.279600 102.651 -32.6081
28.484526 102.711 -34.1108
28.690937 102.776 -35.6189
28.898843 102.852 -37.1283
29.108256 102.938 -38.6346
29.319186 103.038 -40.1338
29.531645 103.151 -41.6228
29.745644 103.276 -43.1001
29.961193 103.413 -44.5659
30.178304 103.557 -46.0217
30.396989 103.704 -47.4702
30.617258 103.850 -48.9145
30.839123 103.990 -50.3577
31.062596 104.118 -51.8020
31.287688 104.231 -53.2488
31.514412 104.323 -54.6979
31.742778 104.392 -56.1481
31.972800 104.435 -57.5969
32.204488 104.451 -59.0411
32.437855 104.439 -60.4767
32.672913 104.399 -61.8994
32.909674 104.332 -63.3045
33.148151 104.238 -64.6874
33.388356 104.121 -66.0435
33.630302 103.981 -67.3687
33.874001 103.822 -68.6595
34.119466 103.647 -69.9133
34.366710 103.460 -71.1292
34.615745 103.264 -72.3073
34.866585 103.063 -73.4496
35.119243 102.862 -74.5593
35.373731 102.664 -75.6405
35.630064 102.474 -76.6979
35.888254 102.296 -77.7357
36.148315 102.132 -78.7574
36.410261 101.987 -79.7654
36.674104 101.863 -80.7602
36.939860 101.763 -81.7412
37.207542 101.687 -82.7066
37.477163 101.638 -83.6538
37.748738 101.615 -84.5803
38.022281 101.619 -85.4844
38.297806 101.650 -86.3656
38.575327 101.706 -87.2247
38.854860 101.787 -88.0647
39.136419 101.893 -88.8896
39.420017 102.020 -89.7048
39.705671 102.169 -90.5161
39.993395 102.337 -91.3291
40.283203 102.524 -92.1491
40.575112 102.728 -92.9805
40.869136 102.947 -93.8266
41.165290 103.180 -94.6900
41.463591 103.424 -95.5723
41.764053 103.677 -96.4743
42.066693 103.937 -97.3967
42.371525 104.201 -98.3400
42.678567 104.466 -99.3049
42.987834 104.729 -100.2923
43.299341 104.987 -101.3037
43.613106 105.238 -102.3410
43.929145 105.478 -103.4063
44.247473 105.706 -104.5016
44.568109 105.920 -105.6286
44.891068 106.117 -106.7884
45.216367 106.296 -107.9812
45.544023 106.455 -109.2062
45.874054 106.593 -110.4616
46.206476 106.709 -111.7449
46.541307 106.803 -113.0526
46.878565 106.873 -114.3808
47.218266 106.920 -115.7255
47.560429 106.945 -117.0825
47.905072 106.947 -118.4474
48.252212 106.928 -119.8161
48.601867 106.889 -121.1840
48.954056 106.832 -122.5462
49.308798 106.757 -123.8977
49.666109 106.667 -125.2332
50.026010 106.565 -126.5479
50.388520 106.451 -127.8376
50.753656 106.329 -129.0987
51.121437 106.200 -130.3286
51.491884 106.066 -131.5253
51.865016 105.929 -132.6871
52.240851 105.791 -133.8123
52.619410 105.651 -134.8994
53.000712 105.513 -135.9472
53.384777 105.375 -136.9547
53.771625 105.239 -137.9214
54.161276 105.103 -138.8471
54.553751 104.969 -139.7323
54.949070 104.834 -140.5776
55.347254 104.700 -141.3839
55.748323 104.565 -142.1521
56.152298 104.428 -142.8835
56.559201 104.290 -143.5791
56.969052 104.149 -144.2406
57.381873 104.007 -144.8695
57.797686 103.863 -145.4675
58.216512 103.717 -146.0360
58.638373 103.571 -146.5764
59.063291 103.423 -147.0902
59.491288 103.276 -147.5786
59.922386 103.129 -148.0433
60.356608 102.983 -148.4857
60.793977 102.839 -148.9075
61.234515 102.697 -149.3097
61.678246 102.557 -149.6933
62.125192 102.420 -150.0586
62.575377 102.285 -150.4057
63.028824 102.154 -150.7345
63.485557 102.026 -151.0447
63.945599 101.901 -151.3367
64.408975 101.782 -151.6113
64.875709 101.668 -151.8698
65.345825 101.559 -152.1142
65.819348 101.456 -152.3467
66.296302 101.360 -152.5697
66.776713 101.270 -152.7856
67.260604 101.187 -152.9965
67.748002 101.110 -153.2039
68.238932 101.039 -153.4092
68.733420 100.974 -153.6131
69.231490 100.915 -153.8160
69.733170 100.862 -154.0183
70.238485 100.813 -154.2200
70.747463 100.768 -154.4215
71.260128 100.728 -154.6233
71.776508 100.691 -154.8262
72.296630 100.658 -155.0315
72.820521 100.627 -155.2405
73.348209 100.600 -155.4547
73.879720 100.575 -155.6754
74.415083 100.552 -155.9035
74.954326 100.531 -156.1396
75.497475 100.511 -156.3842
76.044561 100.491 -156.6375
76.595612 100.472 -156.8997
77.150655 100.452 -157.1710
77.709720 100.431 -157.4518
78.272837 100.407 -157.7422
78.840034 100.380 -158.0425
79.411342 100.350 -158.3523
79.986789 100.317 -158.6711
80.566406 100.280 -158.9982
81.150224 100.238 -159.3324
81.738272 100.193 -159.6727
82.330581 100.145 -160.0179
82.927182 100.094 -160.3666
83.528107 100.043 -160.7177
84.133386 99.991 -161.0701
84.743051 99.943 -161.4228
85.357134 99.899 -161.7750
85.975667 99.863 -162.1259
86.598682 99.838 -162.4750
87.226212 99.828 -162.8215
87.858289 99.835 -163.1650
88.494946 99.862 -163.5045
89.136217 99.912 -163.8395
89.782135 99.984 -164.1691
90.432733 100.079 -164.4928
91.088046 100.195 -164.8098
91.748108 100.327 -165.1194
92.412952 100.473 -165.4208
93.082615 100.626 -165.7133
93.757130 100.783 -165.9960
94.436533 100.936 -166.2682
95.120859 101.082 -166.5293
95.810144 101.217 -166.7787
96.504423 101.337 -167.0161
97.203734 101.440 -167.2414
97.908112 101.526 -167.4546
98.617595 101.595 -167.6559
99.332219 101.647 -167.8457
100.052021 101.685 -168.0245
100.777039 101.710 -168.1926
101.507311 101.725 -168.3507
102.242875 101.731 -168.4990
102.983769 101.732 -168.6381
103.730032 101.728 -168.7683
104.481702 101.720 -168.8899
105.238820 101.707 -169.0033
106.001424 101.691 -169.1088
106.769554 101.669 -169.2064
107.543250 101.640 -169.2964
108.322553 101.602 -169.3793
109.107503 101.554 -169.4560
109.898141 101.496 -169.5274
110.694508 101.424 -169.5948
111.496646 101.341 -169.6596
112.304596 101.246 -169.7233
113.118402 101.140 -169.7872
113.938104 101.025 -169.8526
114.763747 100.903 -169.9204
115.595372 100.775 -169.9912
116.433024 100.645 -170.0651
117.276746 100.513 -170.1425
118.126581 100.383 -170.2233
118.982575 100.255 -170.3079
119.844772 100.130 -170.3967
120.713217 100.009 -170.4902
121.587954 99.891 -170.5889
122.469031 99.775 -170.6937
123.356492 99.661 -170.8049
124.250384 99.547 -170.9232
125.150753 99.431 -171.0490
126.057647 99.313 -171.1828
126.971113 99.190 -171.3250
127.891198 99.061 -171.4756
128.817950 98.925 -171.6351
129.751418 98.782 -171.8034
130.691651 98.632 -171.9805
131.638696 98.476 -172.1662
132.592604 98.314 -172.3599
133.553425 98.148 -172.5607
134.521208 97.981 -172.7675
135.496004 97.816 -172.9792
136.477864 97.655 -173.1947
137.466839 97.502 -173.4126
138.462981 97.360 -173.6319
139.466340 97.231 -173.8513
140.476971 97.117 -174.0694
141.494925 97.019 -174.2844
142.520256 96.937 -174.4945
143.553016 96.869 -174.6973
144.593260 96.812 -174.8907
145.641043 96.763 -175.0721
146.696418 96.718 -175.2390
147.759441 96.674 -175.3890
148.830166 96.626 -175.5199
149.908651 96.572 -175.6294
150.994951 96.510 -175.7155
152.089123 96.439 -175.7759
153.191223 96.359 -175.8084
154.301310 96.270 -175.8106
155.419441 96.174 -175.7799
156.545674 96.073 -175.7140
157.680069 95.967 -175.6107
158.822683 95.860 -175.4685
159.973578 95.753 -175.2864
161.132813 95.648 -175.0640
162.300447 95.547 -174.8016
163.476543 95.449 -174.5002
164.661162 95.357 -174.1612
165.854364 95.271 -173.7863
167.056213 95.191 -173.3774
168.266772 95.119 -172.9367
169.486102 95.055 -172.4664
170.714268 94.999 -171.9687
171.951334 94.953 -171.4461
173.197364 94.916 -170.9010
174.452424 94.889 -170.3359
175.716578 94.871 -169.7534
176.989893 94.863 -169.1565
178.272434 94.863 -168.5485
179.564270 94.870 -167.9328
180.865467 94.884 -167.3131
182.176092 94.902 -166.6927
183.496216 94.924 -166.0747
184.825905 94.948 -165.4618
186.165229 94.974 -164.8564
187.514259 95.002 -164.2605
188.873065 95.031 -163.6758
190.241717 95.062 -163.1037
191.620287 95.095 -162.5453
193.008847 95.130 -162.0015
194.407468 95.167 -161.4730
195.816225 95.207 -160.9602
197.235190 95.248 -160.4634
198.664438 95.291 -159.9829
200.104042 95.335 -159.5187
201.554078 95.379 -159.0710
203.014622 95.423 -158.6396
204.485750 95.465 -158.2242
205.967538 95.505 -157.8238
207.460064 95.542 -157.4371
208.963405 95.577 -157.0629
210.477640 95.609 -156.6998
212.002848 95.638 -156.3465
213.539108 95.665 -156.0019
215.086500 95.690 -155.6651
216.645105 95.713 -155.3354
218.215005 95.734 -155.0122
219.796281 95.754 -154.6954
221.389015 95.772 -154.3847
222.993292 95.789 -154.0796
224.609193 95.802 -153.7797
226.236804 95.812 -153.4846
227.876209 95.818 -153.1938
229.527494 95.820 -152.9070
231.190745 95.817 -152.6237
232.866048 95.809 -152.3435
234.553491 95.798 -152.0661
236.253163 95.783 -151.7913
237.965150 95.765 -151.5192
239.689544 95.745 -151.2504
241.426433 95.725 -150.9855
243.175909 95.705 -150.7257
244.938062 95.687 -150.4718
246.712984 95.670 -150.2247
248.500768 95.657 -149.9849
250.301507 95.647 -149.7526
252.115295 95.641 -149.5279
253.942226 95.641 -149.3107
255.782396 95.646 -149.1009
257.635901 95.657 -148.8983
259.502837 95.675 -148.7026
261.383301 95.699 -148.5140
263.277392 95.732 -148.3327
265.185209 95.771 -148.1591
267.106850 95.817 -147.9937
269.042417 95.871 -147.8371
270.992009 95.930 -147.6901
272.955729 95.995 -147.5538
274.933678 96.065 -147.4294
276.925961 96.140 -147.3177
278.932681 96.218 -147.2195
280.953942 96.300 -147.1353
282.989850 96.385 -147.0650
285.040511 96.474 -147.0085
287.106032 96.566 -146.9654
289.186521 96.663 -146.9353
291.282086 96.764 -146.9176
293.392836 96.872 -146.9120
295.518881 96.985 -146.9182
297.660333 97.103 -146.9359
299.817302 97.227 -146.9650
301.989902 97.354 -147.0052
304.178245 97.485 -147.0562
306.382446 97.615 -147.1178
308.602620 97.745 -147.1893
310.838882 97.872 -147.2703
313.091348 97.994 -147.3606
315.360137 98.110 -147.4597
317.645367 98.218 -147.5674
319.947156 98.318 -147.6838
322.265625 98.409 -147.8089
324.600895 98.489 -147.9428
326.953086 98.559 -148.0858
329.322323 98.619 -148.2382
331.708729 98.668 -148.4001
334.112427 98.705 -148.5719
336.533543 98.733 -148.7538
338.972204 98.750 -148.9461
341.428536 98.758 -149.1491
343.902668 98.757 -149.3630
346.394729 98.749 -149.5881
348.904848 98.736 -149.8246
351.433156 98.719 -150.0728
353.979786 98.701 -150.3333
356.544869 98.684 -150.6063
359.128540 98.670 -150.8924
361.730934 98.663 -151.1923
364.352185 98.664 -151.5066
366.992431 98.677 -151.8361
369.651810 98.703 -152.1814
372.330459 98.742 -152.5431
375.028519 98.797 -152.9212
377.746130 98.866 -153.3158
380.483434 98.948 -153.7261
383.240574 99.040 -154.1508
386.017693 99.142 -154.5881
388.814937 99.248 -155.0353
391.632450 99.357 -155.4893
394.470380 99.466 -155.9465
397.328875 99.572 -156.4028
400.208084 99.673 -156.8539
403.108157 99.768 -157.2953
406.029245 99.855 -157.7225
408.971500 99.934 -158.1311
411.935076 100.006 -158.5171
414.920127 100.071 -158.8766
417.926810 100.130 -159.2064
420.955280 100.186 -159.5040
424.005695 100.238 -159.7678
427.078215 100.290 -159.9970
430.173000 100.341 -160.1918
433.290211 100.395 -160.3534
436.430010 100.450 -160.4840
439.592562 100.507 -160.5867
442.778031 100.565 -160.6652
445.986583 100.624 -160.7242
449.218386 100.682 -160.7682
452.473607 100.738 -160.8024
455.752418 100.789 -160.8315
459.054987 100.835 -160.8599
462.381489 100.873 -160.8913
465.732096 100.904 -160.9287
469.106983 100.925 -160.9742
472.506325 100.937 -161.0294
475.930301 100.941 -161.0948
479.379088 100.936 -161.1708
482.852867 100.923 -161.2572
486.351817 100.904 -161.3534
489.876123 100.878 -161.4590
493.425968 100.848 -161.5734
497.001536 100.813 -161.6962
500.603014 100.773 -161.8269
504.230589 100.730 -161.9653
507.884452 100.683 -162.1112
511.564792 100.632 -162.2644
515.271802 100.578 -162.4248
519.005673 100.520 -162.5921
522.766602 100.459 -162.7659
526.554785 100.396 -162.9455
530.370418 100.333 -163.1304
534.213700 100.271 -163.3195
538.084833 100.212 -163.5121
541.984018 100.157 -163.7068
545.911457 100.109 -163.9024
549.867357 100.066 -164.0973
553.851922 100.031 -164.2900
557.865362 100.001 -164.4785
561.907884 99.977 -164.6608
565.979700 99.956 -164.8349
570.081022 99.936 -164.9990
574.212064 99.916 -165.1511
578.373042 99.894 -165.2896
582.564171 99.868 -165.4128
586.785671 99.837 -165.5194
591.037762 99.799 -165.6086
595.320665 99.755 -165.6794
599.634604 99.703 -165.7317
603.979804 99.644 -165.7655
608.356491 99.578 -165.7810
612.764893 99.506 -165.7790
617.205240 99.428 -165.7608
621.677763 99.346 -165.7280
626.182696 99.262 -165.6825
630.720274 99.178 -165.6269
635.290733 99.095 -165.5639
639.894312 99.015 -165.4966
644.531250 98.940 -165.4279
649.201789 98.872 -165.3608
653.906173 98.812 -165.2978
658.644647 98.760 -165.2414
663.417457 98.716 -165.1933
668.224854 98.679 -165.1550
673.067086 98.647 -165.1273
677.944408 98.620 -165.1111
682.857073 98.595 -165.1063
687.805336 98.569 -165.1130
692.789457 98.541 -165.1305
697.809695 98.509 -165.1581
702.866312 98.472 -165.1942
707.959571 98.427 -165.2368
713.089738 98.374 -165.2832
718.257080 98.311 -165.3294
723.461867 98.239 -165.3707
728.704370 98.157 -165.4008
733.984862 98.064 -165.4127
739.303619 97.962 -165.3981
744.660918 97.851 -165.3481
750.057038 97.732 -165.2531
755.492260 97.606 -165.1036
760.966869 97.475 -164.8906
766.481148 97.339 -164.6058
772.035387 97.199 -164.2426
777.629873 97.058 -163.7964
783.264900 96.916 -163.2652
788.940760 96.774 -162.6497
794.657750 96.634 -161.9541
800.416168 96.495 -161.1853
806.216313 96.361 -160.3530
812.058489 96.229 -159.4688
817.943000 96.103 -158.5457
823.870152 95.981 -157.5971
829.840255 95.865 -156.6360
835.853619 95.755 -155.6744
841.910559 95.652 -154.7224
848.011390 95.555 -153.7889
854.156430 95.466 -152.8806
860.346000 95.385 -152.0029
866.580422 95.311 -151.1598
872.860020 95.246 -150.3539
879.185124 95.191 -149.5872
885.556062 95.144 -148.8603
891.973166 95.107 -148.1736
898.436771 95.081 -147.5261
904.947215 95.065 -146.9166
911.504835 95.060 -146.3428
918.109975 95.065 -145.8022
924.762978 95.082 -145.2916
931.464192 95.110 -144.8077
938.213966 95.150 -144.3472
945.012651 95.200 -143.9072
951.860602 95.261 -143.4853
958.758176 95.333 -143.0803
965.705733 95.414 -142.6918
972.703635 95.504 -142.3205
979.752246 95.602 -141.9684
986.851935 95.709 -141.6381
994.003071 95.823 -141.3332
1001.206027 95.944 -141.0571
1008.461179 96.071 -140.8139
1015.768904 96.206 -140.6068
1023.129584 96.346 -140.4392
1030.543603 96.494 -140.3135
1038.011347 96.647 -140.2319
1045.533205 96.807 -140.1958
1053.109569 96.972 -140.2059
1060.740836 97.141 -140.2625
1068.427401 97.314 -140.3653
1076.169666 97.489 -140.5135
1083.968035 97.663 -140.7055
1091.822915 97.834 -140.9393
1099.734713 98.001 -141.2123
1107.703844 98.160 -141.5210
1115.730723 98.309 -141.8610
1123.815768 98.445 -142.2270
1131.959400 98.568 -142.6126
1140.162045 98.676 -143.0103
1148.424129 98.767 -143.4114
1156.746083 98.842 -143.8061
1165.128342 98.902 -144.1839
1173.571343 98.947 -144.5343
1182.075524 98.981 -144.8465
1190.641331 99.003 -145.1109
1199.269209 99.018 -145.3190
1207.959608 99.027 -145.4636
1216.712981 99.032 -145.5384
1225.529785 99.035 -145.5380
1234.410479 99.038 -145.4577
1243.355526 99.042 -145.2936
1252.365393 99.050 -145.0436
1261.440549 99.062 -144.7086
1270.581467 99.081 -144.2938
1279.788624 99.108 -143.8094
1289.062500 99.145 -143.2704
1298.403578 99.193 -142.6958
1307.812346 99.252 -142.1070
1317.289293 99.323 -141.5258
1326.834914 99.405 -140.9724
1336.449707 99.496 -140.4642
1346.134173 99.595 -140.0148
1355.888816 99.699 -139.6338
1365.714145 99.808 -139.3272
1375.610673 99.917 -139.0980
1385.578915 100.027 -138.9467
1395.619391 100.133 -138.8716
1405.732624 100.236 -138.8700
1415.919142 100.334 -138.9374
1426.179476 100.426 -139.0686
1436.514160 100.512 -139.2576
1446.923734 100.591 -139.4976
1457.408740 100.664 -139.7814
1467.969724 100.730 -140.1013
1478.607238 100.790 -140.4494
1489.321836 100.846 -140.8176
1500.114076 100.896 -141.1980
1510.984521 100.942 -141.5832
1521.933737 100.984 -141.9664
1532.962297 101.024 -142.3422
1544.070773 101.061 -142.7069
1555.259747 101.096 -143.0586
1566.529800 101.130 -143.3973
1577.881521 101.161 -143.7249
1589.315501 101.191 -144.0445
1600.832336 101.217 -144.3598
1612.432627 101.241 -144.6740
1624.116978 101.259 -144.9884
1635.886000 101.272 -145.3024
1647.740304 101.278 -145.6122
1659.680509 101.278 -145.9118
1671.707238 101.269 -146.1932
1683.821118 101.255 -146.4476
1696.022780 101.234 -146.6661
1708.312860 101.208 -146.8408
1720.692000 101.180 -146.9662
1733.160843 101.151 -147.0391
1745.720041 101.122 -147.0597
1758.370248 101.096 -147.0312
1771.112124 101.073 -146.9597
1783.946332 101.053 -146.8534
1796.873543 101.038 -146.7221
1809.894429 101.027 -146.5756
1823.009670 101.018 -146.4229
1836.219950 101.012 -146.2712
1849.525956 101.006 -146.1249
1862.928384 101.000 -145.9856
1876.427931 100.993 -145.8522
1890.025301 100.985 -145.7214
1903.721204 100.976 -145.5889
1917.516352 100.965 -145.4509
1931.411466 100.954 -145.3052
1945.407270 100.941 -145.1523
1959.504493 100.929 -144.9951
1973.703870 100.914 -144.8387
1988.006142 100.897 -144.6879
2002.412054 100.875 -144.5460
2016.922357 100.847 -144.4141
2031.537808 100.810 -144.2904
2046.259169 100.764 -144.1711
2061.087206 100.707 -144.0512
2076.022694 100.639 -143.9252
2091.066410 100.559 -143.7883
2106.219139 100.469 -143.6365
2121.481671 100.370 -143.4667
2136.854802 100.262 -143.2763
2152.339333 100.147 -143.0625
2167.936071 100.026 -142.8213
2183.645829 99.900 -142.5473
2199.469427 99.772 -142.2344
2215.407689 99.643 -141.8767
2231.461446 99.516 -141.4703
2247.631536 99.393 -141.0148
2263.918800 99.277 -140.5145
2280.324089 99.169 -139.9772
2296.848258 99.070 -139.4137
2313.492167 98.982 -138.8344
2330.256685 98.902 -138.2480
2347.142685 98.831 -137.6600
2364.151049 98.768 -137.0734
2381.282662 98.712 -136.4890
2398.538418 98.662 -135.9074
2415.919216 98.618 -135.3296
2433.425962 98.581 -134.7572
2451.059570 98.549 -134.1927
2468.820958 98.523 -133.6392
2486.711052 98.503 -133.0991
2504.730786 98.489 -132.5743
2522.881098 98.480 -132.0651
2541.162934 98.477 -131.5706
2559.577248 98.479 -131.0878
2578.125000 98.487 -130.6118
2596.807157 98.501 -130.1346
2615.624692 98.522 -129.6461
2634.578586 98.551 -129.1334
2653.669829 98.591 -128.5835
2672.899414 98.644 -127.9845
2692.268345 98.713 -127.3286
2711.777632 98.801 -126.6141
2731.428290 98.911 -125.8470
2751.221345 99.044 -125.0418
2771.157829 99.201 -124.2209
2791.238781 99.379 -123.4119
2811.465248 99.577 -122.6442
2831.838284 99.790 -121.9450
2852.358952 100.013 -121.3365
2873.028321 100.241 -120.8337
2893.847468 100.468 -120.4449
2914.817480 100.690 -120.1719
2935.939449 100.903 -120.0115
2957.214476 101.105 -119.9562
