* Measurement data measured by REW V5.31.3
* Source: EXCL: Headset (USB-C to 3.5mm Headphone Jack Adapter), MICROPHONE (Master Volume), 0, volume: 0.260
* Format: 256k Log Swept Sine, 1 sweep at -12.0 dBFS with no timing reference
* Dated: Feb 10, 2025 1:48:25 PM
* REW Settings:
*  C-weighting compensation: Off
*  Target level: 75.0 dB
* Note: ; 
* Measurement: Maxwell R1
* Smoothing: 1/6 octave
* Frequency Step: 96 ppo
* Start Frequency: 20.0 Hz
*
* Freq(Hz) SPL(dB) Phase(degrees)
20.141602 98.444 33.1043
20.287556 98.491 32.6506
20.434568 98.552 32.0502
20.582645 98.619 31.3263
20.731796 98.689 30.5027
20.882027 98.755 29.6021
21.033346 98.814 28.6441
21.185763 98.863 27.6444
21.339284 98.902 26.6143
21.493917 98.932 25.5604
21.649671 98.952 24.4857
21.806553 98.967 23.3893
21.964572 98.978 22.2677
22.123737 98.990 21.1154
22.284054 99.005 19.9262
22.445534 99.026 18.6942
22.608183 99.055 17.4151
22.772012 99.094 16.0866
22.937027 99.143 14.7094
23.103238 99.203 13.2873
23.270654 99.273 11.8269
23.439282 99.353 10.3369
23.609133 99.442 8.8278
23.780215 99.539 7.3101
23.952536 99.644 5.7937
24.126106 99.756 4.2869
24.300934 99.875 2.7953
24.477028 100.000 1.3213
24.654399 100.130 -0.1356
24.833055 100.266 -1.5794
25.013005 100.405 -3.0162
25.194260 100.546 -4.4541
25.376828 100.688 -5.9017
25.560719 100.829 -7.3672
25.745942 100.968 -8.8574
25.932508 101.103 -10.3768
26.120426 101.232 -11.9274
26.309705 101.355 -13.5080
26.500356 101.469 -15.1149
26.692388 101.575 -16.7421
26.885812 101.672 -18.3820
27.080638 101.761 -20.0263
27.276876 101.841 -21.6668
27.474535 101.914 -23.2960
27.673627 101.980 -24.9082
27.874161 102.043 -26.4993
28.076149 102.104 -28.0678
28.279600 102.166 -29.6142
28.484526 102.232 -31.1411
28.690937 102.305 -32.6527
28.898843 102.388 -34.1541
29.108256 102.483 -35.6511
29.319186 102.591 -37.1491
29.531645 102.713 -38.6523
29.745644 102.847 -40.1637
29.961193 102.991 -41.6843
30.178304 103.143 -43.2128
30.396989 103.298 -44.7466
30.617258 103.452 -46.2813
30.839123 103.599 -47.8121
31.062596 103.736 -49.3340
31.287688 103.856 -50.8427
31.514412 103.957 -52.3352
31.742778 104.034 -53.8098
31.972800 104.084 -55.2663
32.204488 104.106 -56.7054
32.437855 104.098 -58.1284
32.672913 104.059 -59.5364
32.909674 103.990 -60.9301
33.148151 103.892 -62.3089
33.388356 103.768 -63.6716
33.630302 103.619 -65.0158
33.874001 103.450 -66.3389
34.119466 103.266 -67.6378
34.366710 103.070 -68.9101
34.615745 102.867 -70.1535
34.866585 102.662 -71.3665
35.119243 102.459 -72.5478
35.373731 102.262 -73.6969
35.630064 102.075 -74.8130
35.888254 101.901 -75.8959
36.148315 101.743 -76.9453
36.410261 101.602 -77.9617
36.674104 101.483 -78.9459
36.939860 101.385 -79.9000
37.207542 101.312 -80.8269
37.477163 101.264 -81.7306
37.748738 101.243 -82.6162
38.022281 101.249 -83.4891
38.297806 101.280 -84.3545
38.575327 101.338 -85.2173
38.854860 101.420 -86.0810
39.136419 101.525 -86.9477
39.420017 101.652 -87.8182
39.705671 101.799 -88.6917
39.993395 101.965 -89.5671
40.283203 102.149 -90.4431
40.575112 102.350 -91.3192
40.869136 102.566 -92.1962
41.165290 102.795 -93.0764
41.463591 103.037 -93.9634
41.764053 103.288 -94.8619
42.066693 103.546 -95.7772
42.371525 103.808 -96.7140
42.678567 104.071 -97.6766
42.987834 104.333 -98.6681
43.299341 104.589 -99.6903
43.613106 104.838 -100.7438
43.929145 105.077 -101.8283
44.247473 105.302 -102.9423
44.568109 105.513 -104.0838
44.891068 105.707 -105.2504
45.216367 105.882 -106.4395
45.544023 106.038 -107.6489
45.874054 106.173 -108.8768
46.206476 106.287 -110.1219
46.541307 106.378 -111.3837
46.878565 106.447 -112.6621
47.218266 106.494 -113.9570
47.560429 106.519 -115.2680
47.905072 106.522 -116.5937
48.252212 106.505 -117.9316
48.601867 106.468 -119.2776
48.954056 106.412 -120.6263
49.308798 106.339 -121.9714
49.666109 106.251 -123.3059
50.026010 106.149 -124.6230
50.388520 106.036 -125.9167
50.753656 105.914 -127.1820
51.121437 105.785 -128.4151
51.491884 105.650 -129.6134
51.865016 105.512 -130.7754
52.240851 105.373 -131.9001
52.619410 105.233 -132.9867
53.000712 105.094 -134.0346
53.384777 104.957 -135.0430
53.771625 104.822 -136.0112
54.161276 104.688 -136.9386
54.553751 104.557 -137.8251
54.949070 104.426 -138.6709
55.347254 104.295 -139.4767
55.748323 104.164 -140.2434
56.152298 104.032 -140.9724
56.559201 103.898 -141.6651
56.969052 103.762 -142.3229
57.381873 103.623 -142.9478
57.797686 103.482 -143.5414
58.216512 103.340 -144.1059
58.638373 103.195 -144.6433
59.063291 103.050 -145.1552
59.491288 102.904 -145.6430
59.922386 102.757 -146.1075
60.356608 102.612 -146.5491
60.793977 102.467 -146.9679
61.234515 102.324 -147.3642
61.678246 102.182 -147.7380
62.125192 102.043 -148.0900
62.575377 101.907 -148.4210
63.028824 101.774 -148.7318
63.485557 101.645 -149.0239
63.945599 101.521 -149.2984
64.408975 101.401 -149.5567
64.875709 101.286 -149.8001
65.345825 101.178 -150.0300
65.819348 101.075 -150.2476
66.296302 100.978 -150.4547
66.776713 100.889 -150.6528
67.260604 100.805 -150.8434
67.748002 100.728 -151.0281
68.238932 100.656 -151.2087
68.733420 100.590 -151.3868
69.231490 100.530 -151.5641
69.733170 100.475 -151.7424
70.238485 100.425 -151.9230
70.747463 100.379 -152.1072
71.260128 100.337 -152.2958
71.776508 100.300 -152.4895
72.296630 100.267 -152.6885
72.820521 100.236 -152.8930
73.348209 100.210 -153.1029
73.879720 100.186 -153.3179
74.415083 100.165 -153.5381
74.954326 100.145 -153.7633
75.497475 100.128 -153.9938
76.044561 100.112 -154.2301
76.595612 100.096 -154.4729
77.150655 100.080 -154.7229
77.709720 100.064 -154.9806
78.272837 100.045 -155.2465
78.840034 100.025 -155.5206
79.411342 100.002 -155.8031
79.986789 99.975 -156.0936
80.566406 99.944 -156.3921
81.150224 99.910 -156.6980
81.738272 99.872 -157.0111
82.330581 99.830 -157.3308
82.927182 99.786 -157.6566
83.528107 99.741 -157.9880
84.133386 99.696 -158.3243
84.743051 99.653 -158.6646
85.357134 99.614 -159.0083
85.975667 99.584 -159.3547
86.598682 99.565 -159.7030
87.226212 99.560 -160.0524
87.858289 99.572 -160.4018
88.494946 99.605 -160.7501
89.136217 99.659 -161.0959
89.782135 99.737 -161.4379
90.432733 99.837 -161.7748
91.088046 99.957 -162.1056
91.748108 100.094 -162.4290
92.412952 100.244 -162.7442
93.082615 100.402 -163.0503
93.757130 100.562 -163.3464
94.436533 100.719 -163.6319
95.120859 100.869 -163.9066
95.810144 101.007 -164.1703
96.504423 101.130 -164.4229
97.203734 101.236 -164.6643
97.908112 101.324 -164.8942
98.617595 101.395 -165.1122
99.332219 101.450 -165.3180
100.052021 101.489 -165.5115
100.777039 101.516 -165.6926
101.507311 101.532 -165.8616
102.242875 101.540 -166.0189
102.983769 101.540 -166.1650
103.730032 101.536 -166.3002
104.481702 101.527 -166.4250
105.238820 101.514 -166.5399
106.001424 101.497 -166.6453
106.769554 101.473 -166.7420
107.543250 101.443 -166.8309
108.322553 101.405 -166.9129
109.107503 101.357 -166.9891
109.898141 101.298 -167.0606
110.694508 101.227 -167.1286
111.496646 101.144 -167.1942
112.304596 101.050 -167.2586
113.118402 100.945 -167.3230
113.938104 100.832 -167.3885
114.763747 100.711 -167.4559
115.595372 100.585 -167.5259
116.433024 100.456 -167.5993
117.276746 100.326 -167.6763
118.126581 100.197 -167.7575
118.982575 100.070 -167.8428
119.844772 99.946 -167.9324
120.713217 99.826 -168.0264
121.587954 99.709 -168.1250
122.469031 99.595 -168.2283
123.356492 99.482 -168.3366
124.250384 99.369 -168.4506
125.150753 99.255 -168.5707
126.057647 99.137 -168.6981
126.971113 99.015 -168.8334
127.891198 98.888 -168.9775
128.817950 98.753 -169.1309
129.751418 98.612 -169.2936
130.691651 98.463 -169.4655
131.638696 98.308 -169.6461
132.592604 98.147 -169.8347
133.553425 97.983 -170.0303
134.521208 97.817 -170.2318
135.496004 97.653 -170.4382
136.477864 97.493 -170.6480
137.466839 97.342 -170.8601
138.462981 97.201 -171.0730
139.466340 97.073 -171.2851
140.476971 96.961 -171.4949
141.494925 96.865 -171.7005
142.520256 96.784 -171.9001
143.553016 96.718 -172.0918
144.593260 96.663 -172.2735
145.641043 96.616 -172.4433
146.696418 96.574 -172.5990
147.759441 96.531 -172.7384
148.830166 96.486 -172.8593
149.908651 96.435 -172.9591
150.994951 96.376 -173.0356
152.089123 96.308 -173.0859
153.191223 96.231 -173.1075
154.301310 96.145 -173.0976
155.419441 96.052 -173.0534
156.545674 95.954 -172.9725
157.680069 95.852 -172.8530
158.822683 95.748 -172.6936
159.973578 95.645 -172.4934
161.132813 95.543 -172.2522
162.300447 95.445 -171.9703
163.476543 95.351 -171.6487
164.661162 95.262 -171.2887
165.854364 95.179 -170.8919
167.056213 95.103 -170.4605
168.266772 95.034 -169.9973
169.486102 94.973 -169.5051
170.714268 94.920 -168.9872
171.951334 94.877 -168.4470
173.197364 94.844 -167.8876
174.452424 94.820 -167.3122
175.716578 94.807 -166.7237
176.989893 94.803 -166.1248
178.272434 94.807 -165.5186
179.564270 94.819 -164.9076
180.865467 94.837 -164.2948
182.176092 94.860 -163.6826
183.496216 94.886 -163.0734
184.825905 94.914 -162.4692
186.165229 94.944 -161.8718
187.514259 94.975 -161.2827
188.873065 95.007 -160.7032
190.241717 95.040 -160.1347
191.620287 95.076 -159.5782
193.008847 95.113 -159.0348
194.407468 95.152 -158.5051
195.816225 95.194 -157.9899
197.235190 95.238 -157.4893
198.664438 95.284 -157.0038
200.104042 95.332 -156.5337
201.554078 95.381 -156.0791
203.014622 95.429 -155.6404
204.485750 95.476 -155.2175
205.967538 95.522 -154.8106
207.460064 95.565 -154.4194
208.963405 95.605 -154.0434
210.477640 95.642 -153.6817
212.002848 95.676 -153.3334
213.539108 95.707 -152.9971
215.086500 95.736 -152.6714
216.645105 95.762 -152.3547
218.215005 95.787 -152.0456
219.796281 95.810 -151.7426
221.389015 95.832 -151.4443
222.993292 95.851 -151.1492
224.609193 95.867 -150.8561
226.236804 95.879 -150.5638
227.876209 95.888 -150.2718
229.527494 95.892 -149.9799
231.190745 95.892 -149.6885
232.866048 95.888 -149.3983
234.553491 95.879 -149.1103
236.253163 95.868 -148.8259
237.965150 95.854 -148.5461
239.689544 95.838 -148.2722
241.426433 95.822 -148.0052
243.175909 95.807 -147.7458
244.938062 95.793 -147.4943
246.712984 95.782 -147.2507
248.500768 95.774 -147.0147
250.301507 95.769 -146.7858
252.115295 95.769 -146.5635
253.942226 95.774 -146.3473
255.782396 95.785 -146.1369
257.635901 95.801 -145.9322
259.502837 95.825 -145.7334
261.383301 95.855 -145.5411
263.277392 95.892 -145.3562
265.185209 95.936 -145.1801
267.106850 95.988 -145.0142
269.042417 96.047 -144.8599
270.992009 96.112 -144.7184
272.955729 96.183 -144.5910
274.933678 96.259 -144.4783
276.925961 96.340 -144.3809
278.932681 96.425 -144.2991
280.953942 96.513 -144.2328
282.989850 96.605 -144.1815
285.040511 96.700 -144.1446
287.106032 96.798 -144.1215
289.186521 96.900 -144.1114
291.282086 97.007 -144.1137
293.392836 97.119 -144.1279
295.518881 97.237 -144.1537
297.660333 97.359 -144.1908
299.817302 97.487 -144.2391
301.989902 97.618 -144.2984
304.178245 97.752 -144.3685
306.382446 97.886 -144.4493
308.602620 98.020 -144.5406
310.838882 98.150 -144.6421
313.091348 98.275 -144.7536
315.360137 98.394 -144.8747
317.645367 98.506 -145.0053
319.947156 98.609 -145.1451
322.265625 98.702 -145.2939
324.600895 98.786 -145.4513
326.953086 98.858 -145.6171
329.322323 98.920 -145.7910
331.708729 98.970 -145.9729
334.112427 99.009 -146.1627
336.533543 99.038 -146.3602
338.972204 99.055 -146.5656
341.428536 99.064 -146.7788
343.902668 99.063 -147.0001
346.394729 99.056 -147.2297
348.904848 99.043 -147.4679
351.433156 99.026 -147.7150
353.979786 99.008 -147.9715
356.544869 98.992 -148.2377
359.128540 98.979 -148.5143
361.730934 98.973 -148.8018
364.352185 98.977 -149.1009
366.992431 98.992 -149.4122
369.651810 99.021 -149.7365
372.330459 99.066 -150.0742
375.028519 99.126 -150.4256
377.746130 99.201 -150.7909
380.483434 99.291 -151.1700
383.240574 99.392 -151.5625
386.017693 99.503 -151.9674
388.814937 99.621 -152.3836
391.632450 99.743 -152.8096
394.470380 99.865 -153.2434
397.328875 99.985 -153.6827
400.208084 100.102 -154.1248
403.108157 100.212 -154.5668
406.029245 100.316 -155.0052
408.971500 100.411 -155.4364
411.935076 100.500 -155.8567
414.920127 100.581 -156.2622
417.926810 100.656 -156.6494
420.955280 100.726 -157.0149
424.005695 100.792 -157.3561
427.078215 100.857 -157.6710
430.173000 100.920 -157.9585
433.290211 100.983 -158.2185
436.430010 101.047 -158.4517
439.592562 101.112 -158.6598
442.778031 101.176 -158.8455
445.986583 101.240 -159.0120
449.218386 101.302 -159.1633
452.473607 101.361 -159.3033
455.752418 101.415 -159.4363
459.054987 101.462 -159.5661
462.381489 101.501 -159.6961
465.732096 101.532 -159.8293
469.106983 101.553 -159.9680
472.506325 101.565 -160.1136
475.930301 101.567 -160.2671
479.379088 101.561 -160.4291
482.852867 101.547 -160.5995
486.351817 101.526 -160.7784
489.876123 101.498 -160.9654
493.425968 101.466 -161.1602
497.001536 101.428 -161.3624
500.603014 101.386 -161.5719
504.230589 101.340 -161.7882
507.884452 101.289 -162.0112
511.564792 101.235 -162.2409
515.271802 101.176 -162.4767
519.005673 101.114 -162.7184
522.766602 101.048 -162.9653
526.554785 100.980 -163.2164
530.370418 100.910 -163.4707
534.213700 100.842 -163.7271
538.084833 100.776 -163.9841
541.984018 100.714 -164.2404
545.911457 100.658 -164.4946
549.867357 100.608 -164.7452
553.851922 100.564 -164.9905
557.865362 100.526 -165.2290
561.907884 100.493 -165.4589
565.979700 100.464 -165.6785
570.081022 100.436 -165.8859
574.212064 100.408 -166.0794
578.373042 100.377 -166.2572
582.564171 100.343 -166.4176
586.785671 100.303 -166.5592
591.037762 100.257 -166.6806
595.320665 100.203 -166.7808
599.634604 100.142 -166.8590
603.979804 100.074 -166.9149
608.356491 99.998 -166.9484
612.764893 99.916 -166.9600
617.205240 99.829 -166.9505
621.677763 99.738 -166.9212
626.182696 99.644 -166.8737
630.720274 99.550 -166.8106
635.290733 99.457 -166.7346
639.894312 99.368 -166.6487
644.531250 99.284 -166.5566
649.201789 99.208 -166.4614
653.906173 99.140 -166.3666
658.644647 99.081 -166.2752
663.417457 99.031 -166.1897
668.224854 98.989 -166.1124
673.067086 98.954 -166.0449
677.944408 98.924 -165.9887
682.857073 98.897 -165.9446
687.805336 98.871 -165.9134
692.789457 98.844 -165.8955
697.809695 98.814 -165.8909
702.866312 98.779 -165.8995
707.959571 98.738 -165.9205
713.089738 98.690 -165.9528
718.257080 98.633 -165.9940
723.461867 98.567 -166.0412
728.704370 98.491 -166.0900
733.984862 98.406 -166.1348
739.303619 98.311 -166.1687
744.660918 98.206 -166.1837
750.057038 98.093 -166.1705
755.492260 97.971 -166.1191
760.966869 97.841 -166.0189
766.481148 97.704 -165.8589
772.035387 97.560 -165.6288
777.629873 97.411 -165.3187
783.264900 97.257 -164.9202
788.940760 97.099 -164.4270
794.657750 96.939 -163.8352
800.416168 96.777 -163.1444
806.216313 96.616 -162.3579
812.058489 96.456 -161.4830
817.943000 96.299 -160.5303
823.870152 96.147 -159.5138
829.840255 96.002 -158.4492
835.853619 95.865 -157.3537
841.910559 95.738 -156.2440
848.011390 95.621 -155.1360
854.156430 95.515 -154.0438
860.346000 95.421 -152.9793
866.580422 95.340 -151.9521
872.860020 95.271 -150.9695
879.185124 95.215 -150.0366
885.556062 95.171 -149.1565
891.973166 95.140 -148.3308
898.436771 95.121 -147.5592
904.947215 95.115 -146.8403
911.504835 95.121 -146.1715
918.109975 95.138 -145.5494
924.762978 95.168 -144.9699
931.464192 95.209 -144.4286
938.213966 95.261 -143.9211
945.012651 95.323 -143.4434
951.860602 95.396 -142.9918
958.758176 95.478 -142.5640
965.705733 95.569 -142.1583
972.703635 95.669 -141.7745
979.752246 95.776 -141.4131
986.851935 95.890 -141.0759
994.003071 96.011 -140.7654
1001.206027 96.138 -140.4843
1008.461179 96.271 -140.2358
1015.768904 96.410 -140.0226
1023.129584 96.556 -139.8475
1030.543603 96.707 -139.7124
1038.011347 96.865 -139.6188
1045.533205 97.028 -139.5677
1053.109569 97.197 -139.5593
1060.740836 97.371 -139.5936
1068.427401 97.548 -139.6701
1076.169666 97.728 -139.7878
1083.968035 97.908 -139.9457
1091.822915 98.086 -140.1426
1099.734713 98.260 -140.3768
1107.703844 98.428 -140.6467
1115.730723 98.588 -140.9501
1123.815768 98.736 -141.2845
1131.959400 98.872 -141.6467
1140.162045 98.995 -142.0328
1148.424129 99.101 -142.4376
1156.746083 99.192 -142.8546
1165.128342 99.267 -143.2752
1173.571343 99.327 -143.6892
1182.075524 99.371 -144.0838
1190.641331 99.401 -144.4445
1199.269209 99.420 -144.7553
1207.959608 99.428 -144.9994
1216.712981 99.429 -145.1609
1225.529785 99.425 -145.2259
1234.410479 99.420 -145.1841
1243.355526 99.416 -145.0300
1252.365393 99.416 -144.7635
1261.440549 99.424 -144.3905
1270.581467 99.441 -143.9229
1279.788624 99.470 -143.3780
1289.062500 99.511 -142.7777
1298.403578 99.567 -142.1465
1307.812346 99.636 -141.5098
1317.289293 99.719 -140.8920
1326.834914 99.813 -140.3143
1336.449707 99.917 -139.7938
1346.134173 100.029 -139.3431
1355.888816 100.147 -138.9702
1365.714145 100.269 -138.6797
1375.610673 100.392 -138.4730
1385.578915 100.515 -138.3499
1395.619391 100.635 -138.3084
1405.732624 100.751 -138.3458
1415.919142 100.863 -138.4584
1426.179476 100.969 -138.6418
1436.514160 101.070 -138.8911
1446.923734 101.164 -139.2008
1457.408740 101.252 -139.5650
1467.969724 101.333 -139.9777
1478.607238 101.409 -140.4326
1489.321836 101.479 -140.9236
1500.114076 101.544 -141.4442
1510.984521 101.603 -141.9884
1521.933737 101.656 -142.5503
1532.962297 101.704 -143.1241
1544.070773 101.746 -143.7046
1555.259747 101.782 -144.2866
1566.529800 101.811 -144.8654
1577.881521 101.833 -145.4370
1589.315501 101.849 -145.9971
1600.832336 101.857 -146.5423
1612.432627 101.857 -147.0690
1624.116978 101.849 -147.5743
1635.886000 101.833 -148.0551
1647.740304 101.809 -148.5083
1659.680509 101.777 -148.9295
1671.707238 101.737 -149.3128
1683.821118 101.688 -149.6501
1696.022780 101.631 -149.9315
1708.312860 101.568 -150.1456
1720.692000 101.501 -150.2812
1733.160843 101.430 -150.3287
1745.720041 101.359 -150.2817
1758.370248 101.291 -150.1387
1771.112124 101.229 -149.9041
1783.946332 101.174 -149.5886
1796.873543 101.131 -149.2088
1809.894429 101.098 -148.7858
1823.009670 101.077 -148.3428
1836.219950 101.067 -147.9035
1849.525956 101.066 -147.4889
1862.928384 101.072 -147.1158
1876.427931 101.082 -146.7953
1890.025301 101.095 -146.5321
1903.721204 101.106 -146.3246
1917.516352 101.115 -146.1656
1931.411466 101.118 -146.0431
1945.407270 101.114 -145.9423
1959.504493 101.103 -145.8472
1973.703870 101.084 -145.7427
1988.006142 101.057 -145.6163
2002.412054 101.021 -145.4601
2016.922357 100.979 -145.2701
2031.537808 100.929 -145.0460
2046.259169 100.872 -144.7888
2061.087206 100.807 -144.5002
2076.022694 100.736 -144.1814
2091.066410 100.657 -143.8338
2106.219139 100.573 -143.4596
2121.481671 100.485 -143.0629
2136.854802 100.395 -142.6492
2152.339333 100.303 -142.2259
2167.936071 100.213 -141.8004
2183.645829 100.123 -141.3791
2199.469427 100.037 -140.9662
2215.407689 99.953 -140.5628
2231.461446 99.873 -140.1671
2247.631536 99.797 -139.7754
2263.918800 99.726 -139.3829
2280.324089 99.659 -138.9856
2296.848258 99.598 -138.5812
2313.492167 99.544 -138.1703
2330.256685 99.497 -137.7567
2347.142685 99.457 -137.3472
2364.151049 99.424 -136.9503
2381.282662 99.399 -136.5747
2398.538418 99.379 -136.2280
2415.919216 99.364 -135.9165
2433.425962 99.353 -135.6447
2451.059570 99.344 -135.4162
2468.820958 99.337 -135.2332
2486.711052 99.331 -135.0966
2504.730786 99.324 -135.0052
2522.881098 99.316 -134.9556
2541.162934 99.304 -134.9416
2559.577248 99.289 -134.9540
2578.125000 99.269 -134.9811
2596.807157 99.244 -135.0081
2615.624692 99.215 -135.0163
2634.578586 99.181 -134.9827
2653.669829 99.143 -134.8792
2672.899414 99.105 -134.6736
2692.268345 99.069 -134.3315
2711.777632 99.041 -133.8218
2731.428290 99.028 -133.1223
2751.221345 99.037 -132.2272
2771.157829 99.074 -131.1523
2791.238781 99.144 -129.9367
2811.465248 99.249 -128.6387
2831.838284 99.388 -127.3263
2852.358952 99.554 -126.0653
2873.028321 99.742 -124.9088
2893.847468 99.942 -123.8911
2914.817480 100.147 -123.0268
2935.939449 100.351 -122.3148
2957.214476 100.549 -121.7436
