* Measurement data measured by REW V5.31.3
* Source: EXCL: Headset (USB-C to 3.5mm Headphone Jack Adapter), MICROPHONE (Master Volume), 0, volume: 0.250
* Format: 256k Log Swept Sine, 1 sweep at -12.0 dBFS with no timing reference
* Dated: Feb 9, 2025 5:05:42 PM
* REW Settings:
*  C-weighting compensation: Off
*  Target level: 75.0 dB
* Note: ; 
* Measurement: Ouroboros (Golem Mod) R4
* Smoothing: 1/6 octave
* Frequency Step: 96 ppo
* Start Frequency: 20.0 Hz
*
* Freq(Hz) SPL(dB) Phase(degrees)
20.141602 103.815 -110.0745
20.287556 103.802 -110.4436
20.434568 103.783 -110.9323
20.582645 103.756 -111.5180
20.731796 103.720 -112.1756
20.882027 103.672 -112.8803
21.033346 103.614 -113.6087
21.185763 103.546 -114.3411
21.339284 103.468 -115.0622
21.493917 103.382 -115.7613
21.649671 103.291 -116.4329
21.806553 103.196 -117.0758
21.964572 103.101 -117.6923
22.123737 103.007 -118.2875
22.284054 102.915 -118.8676
22.445534 102.826 -119.4389
22.608183 102.740 -120.0070
22.772012 102.658 -120.5760
22.937027 102.578 -121.1479
23.103238 102.501 -121.7229
23.270654 102.426 -122.2995
23.439282 102.353 -122.8750
23.609133 102.281 -123.4462
23.780215 102.211 -124.0097
23.952536 102.145 -124.5632
24.126106 102.083 -125.1052
24.300934 102.027 -125.6361
24.477028 101.978 -126.1580
24.654399 101.937 -126.6745
24.833055 101.905 -127.1907
25.013005 101.882 -127.7121
25.194260 101.868 -128.2444
25.376828 101.862 -128.7922
25.560719 101.861 -129.3584
25.745942 101.865 -129.9438
25.932508 101.870 -130.5461
26.120426 101.876 -131.1608
26.309705 101.879 -131.7808
26.500356 101.879 -132.3979
26.692388 101.874 -133.0029
26.885812 101.864 -133.5876
27.080638 101.847 -134.1450
27.276876 101.824 -134.6709
27.474535 101.796 -135.1638
27.673627 101.764 -135.6252
27.874161 101.730 -136.0594
28.076149 101.695 -136.4723
28.279600 101.662 -136.8707
28.484526 101.634 -137.2612
28.690937 101.612 -137.6494
28.898843 101.601 -138.0392
29.108256 101.602 -138.4327
29.319186 101.619 -138.8306
29.531645 101.653 -139.2325
29.745644 101.705 -139.6378
29.961193 101.774 -140.0465
30.178304 101.859 -140.4589
30.396989 101.955 -140.8762
30.617258 102.058 -141.2999
30.839123 102.161 -141.7310
31.062596 102.259 -142.1693
31.287688 102.344 -142.6131
31.514412 102.411 -143.0586
31.742778 102.454 -143.5004
31.972800 102.470 -143.9322
32.204488 102.455 -144.3478
32.437855 102.408 -144.7422
32.672913 102.330 -145.1128
32.909674 102.223 -145.4597
33.148151 102.089 -145.7865
33.388356 101.932 -146.0988
33.630302 101.755 -146.4037
33.874001 101.562 -146.7078
34.119466 101.359 -147.0159
34.366710 101.147 -147.3299
34.615745 100.931 -147.6479
34.866585 100.714 -147.9645
35.119243 100.497 -148.2723
35.373731 100.285 -148.5630
35.630064 100.079 -148.8293
35.888254 99.884 -149.0668
36.148315 99.702 -149.2750
36.410261 99.536 -149.4575
36.674104 99.390 -149.6218
36.939860 99.267 -149.7780
37.207542 99.168 -149.9373
37.477163 99.094 -150.1096
37.748738 99.047 -150.3022
38.022281 99.026 -150.5186
38.297806 99.029 -150.7579
38.575327 99.056 -151.0151
38.854860 99.105 -151.2819
39.136419 99.175 -151.5480
39.420017 99.263 -151.8027
39.705671 99.369 -152.0362
39.993395 99.492 -152.2411
40.283203 99.630 -152.4137
40.575112 99.782 -152.5543
40.869136 99.949 -152.6675
41.165290 100.128 -152.7614
41.463591 100.318 -152.8466
41.764053 100.517 -152.9341
42.066693 100.723 -153.0345
42.371525 100.934 -153.1558
42.678567 101.147 -153.3030
42.987834 101.359 -153.4778
43.299341 101.568 -153.6787
43.613106 101.771 -153.9017
43.929145 101.966 -154.1416
44.247473 102.151 -154.3924
44.568109 102.324 -154.6483
44.891068 102.485 -154.9043
45.216367 102.631 -155.1563
45.544023 102.763 -155.4015
45.874054 102.880 -155.6378
46.206476 102.981 -155.8637
46.541307 103.066 -156.0786
46.878565 103.134 -156.2819
47.218266 103.187 -156.4740
47.560429 103.224 -156.6557
47.905072 103.244 -156.8283
48.252212 103.250 -156.9933
48.601867 103.240 -157.1524
48.954056 103.218 -157.3071
49.308798 103.184 -157.4579
49.666109 103.140 -157.6052
50.026010 103.089 -157.7481
50.388520 103.034 -157.8855
50.753656 102.977 -158.0155
51.121437 102.921 -158.1364
51.491884 102.866 -158.2466
51.865016 102.816 -158.3456
52.240851 102.769 -158.4341
52.619410 102.728 -158.5136
53.000712 102.691 -158.5866
53.384777 102.657 -158.6557
53.771625 102.628 -158.7229
54.161276 102.601 -158.7893
54.553751 102.575 -158.8548
54.949070 102.551 -158.9183
55.347254 102.528 -158.9781
55.748323 102.505 -159.0323
56.152298 102.481 -159.0798
56.559201 102.457 -159.1199
56.969052 102.431 -159.1536
57.381873 102.405 -159.1827
57.797686 102.378 -159.2097
58.216512 102.349 -159.2374
58.638373 102.320 -159.2680
59.063291 102.289 -159.3029
59.491288 102.258 -159.3425
59.922386 102.226 -159.3866
60.356608 102.193 -159.4350
60.793977 102.159 -159.4874
61.234515 102.127 -159.5444
61.678246 102.096 -159.6075
62.125192 102.068 -159.6788
62.575377 102.043 -159.7609
63.028824 102.022 -159.8564
63.485557 102.006 -159.9675
63.945599 101.995 -160.0952
64.408975 101.990 -160.2402
64.875709 101.990 -160.4018
65.345825 101.996 -160.5792
65.819348 102.008 -160.7711
66.296302 102.026 -160.9767
66.776713 102.049 -161.1953
67.260604 102.077 -161.4268
67.748002 102.109 -161.6715
68.238932 102.146 -161.9298
68.733420 102.185 -162.2025
69.231490 102.226 -162.4902
69.733170 102.269 -162.7934
70.238485 102.314 -163.1124
70.747463 102.359 -163.4474
71.260128 102.406 -163.7987
71.776508 102.452 -164.1666
72.296630 102.500 -164.5517
72.820521 102.547 -164.9547
73.348209 102.594 -165.3762
73.879720 102.641 -165.8166
74.415083 102.687 -166.2754
74.954326 102.733 -166.7517
75.497475 102.777 -167.2438
76.044561 102.819 -167.7496
76.595612 102.858 -168.2670
77.150655 102.895 -168.7939
77.709720 102.927 -169.3287
78.272837 102.955 -169.8700
78.840034 102.978 -170.4175
79.411342 102.996 -170.9712
79.986789 103.009 -171.5316
80.566406 103.016 -172.0991
81.150224 103.018 -172.6742
81.738272 103.015 -173.2574
82.330581 103.007 -173.8486
82.927182 102.997 -174.4479
83.528107 102.983 -175.0544
84.133386 102.970 -175.6672
84.743051 102.958 -176.2849
85.357134 102.951 -176.9059
85.975667 102.950 -177.5289
86.598682 102.960 -178.1530
87.226212 102.983 -178.7777
87.858289 103.022 -179.4027
88.494946 103.081 179.9719
89.136217 103.160 179.3459
89.782135 103.261 178.7192
90.432733 103.382 178.0919
91.088046 103.522 177.4643
91.748108 103.678 176.8369
92.412952 103.844 176.2103
93.082615 104.017 175.5853
93.757130 104.191 174.9629
94.436533 104.360 174.3439
95.120859 104.520 173.7293
95.810144 104.666 173.1199
96.504423 104.796 172.5164
97.203734 104.907 171.9195
97.908112 104.999 171.3296
98.617595 105.072 170.7470
99.332219 105.126 170.1723
100.052021 105.163 169.6059
100.777039 105.185 169.0482
101.507311 105.194 168.4997
102.242875 105.192 167.9608
102.983769 105.182 167.4316
103.730032 105.165 166.9122
104.481702 105.140 166.4029
105.238820 105.110 165.9037
106.001424 105.073 165.4149
106.769554 105.028 164.9367
107.543250 104.974 164.4695
108.322553 104.908 164.0140
109.107503 104.830 163.5710
109.898141 104.738 163.1413
110.694508 104.632 162.7256
111.496646 104.510 162.3244
112.304596 104.373 161.9377
113.118402 104.223 161.5654
113.938104 104.060 161.2068
114.763747 103.887 160.8617
115.595372 103.706 160.5293
116.433024 103.519 160.2095
117.276746 103.328 159.9021
118.126581 103.136 159.6071
118.982575 102.945 159.3248
119.844772 102.754 159.0554
120.713217 102.566 158.7997
121.587954 102.380 158.5585
122.469031 102.196 158.3326
123.356492 102.013 158.1231
124.250384 101.829 157.9308
125.150753 101.644 157.7564
126.057647 101.456 157.6008
126.971113 101.263 157.4647
127.891198 101.064 157.3484
128.817950 100.858 157.2528
129.751418 100.645 157.1780
130.691651 100.425 157.1243
131.638696 100.199 157.0920
132.592604 99.967 157.0814
133.553425 99.731 157.0928
134.521208 99.495 157.1271
135.496004 99.261 157.1851
136.477864 99.032 157.2678
137.466839 98.813 157.3763
138.462981 98.606 157.5117
139.466340 98.415 157.6744
140.476971 98.242 157.8649
141.494925 98.088 158.0829
142.520256 97.955 158.3283
143.553016 97.841 158.6007
144.593260 97.743 158.8997
145.641043 97.660 159.2247
146.696418 97.587 159.5757
147.759441 97.521 159.9521
148.830166 97.458 160.3532
149.908651 97.395 160.7783
150.994951 97.330 161.2265
152.089123 97.262 161.6969
153.191223 97.190 162.1886
154.301310 97.115 162.7003
155.419441 97.039 163.2304
156.545674 96.963 163.7773
157.680069 96.888 164.3389
158.822683 96.817 164.9132
159.973578 96.752 165.4982
161.132813 96.693 166.0923
162.300447 96.642 166.6942
163.476543 96.600 167.3026
164.661162 96.565 167.9159
165.854364 96.540 168.5322
167.056213 96.524 169.1491
168.266772 96.518 169.7639
169.486102 96.521 170.3741
170.714268 96.533 170.9772
171.951334 96.555 171.5706
173.197364 96.586 172.1521
174.452424 96.627 172.7194
175.716578 96.676 173.2703
176.989893 96.732 173.8028
178.272434 96.795 174.3155
179.564270 96.863 174.8073
180.865467 96.934 175.2776
182.176092 97.007 175.7265
183.496216 97.081 176.1537
184.825905 97.155 176.5593
186.165229 97.228 176.9431
187.514259 97.301 177.3048
188.873065 97.372 177.6441
190.241717 97.443 177.9605
191.620287 97.514 178.2538
193.008847 97.584 178.5237
194.407468 97.655 178.7701
195.816225 97.726 178.9932
197.235190 97.796 179.1932
198.664438 97.866 179.3706
200.104042 97.935 179.5258
201.554078 98.003 179.6595
203.014622 98.068 179.7727
204.485750 98.129 179.8664
205.967538 98.188 179.9417
207.460064 98.242 179.9996
208.963405 98.291 -179.9587
210.477640 98.337 -179.9323
212.002848 98.378 -179.9204
213.539108 98.415 -179.9223
215.086500 98.449 -179.9375
216.645105 98.480 -179.9651
218.215005 98.507 179.9952
219.796281 98.531 179.9442
221.389015 98.551 179.8827
222.993292 98.568 179.8114
224.609193 98.580 179.7308
226.236804 98.586 179.6416
227.876209 98.587 179.5442
229.527494 98.581 179.4390
231.190745 98.569 179.3268
232.866048 98.550 179.2079
234.553491 98.525 179.0830
236.253163 98.493 178.9528
237.965150 98.456 178.8181
239.689544 98.415 178.6795
241.426433 98.371 178.5381
243.175909 98.323 178.3948
244.938062 98.275 178.2505
246.712984 98.226 178.1062
248.500768 98.177 177.9627
250.301507 98.129 177.8210
252.115295 98.083 177.6821
253.942226 98.040 177.5467
255.782396 98.000 177.4156
257.635901 97.964 177.2897
259.502837 97.932 177.1694
261.383301 97.905 177.0552
263.277392 97.883 176.9478
265.185209 97.867 176.8472
267.106850 97.857 176.7537
269.042417 97.853 176.6676
270.992009 97.854 176.5889
272.955729 97.860 176.5175
274.933678 97.871 176.4535
276.925961 97.886 176.3964
278.932681 97.905 176.3458
280.953942 97.928 176.3011
282.989850 97.953 176.2618
285.040511 97.982 176.2269
287.106032 98.014 176.1954
289.186521 98.051 176.1664
291.282086 98.093 176.1385
293.392836 98.141 176.1105
295.518881 98.195 176.0810
297.660333 98.256 176.0489
299.817302 98.322 176.0128
301.989902 98.394 175.9718
304.178245 98.470 175.9250
306.382446 98.548 175.8717
308.602620 98.627 175.8116
310.838882 98.703 175.7444
313.091348 98.776 175.6702
315.360137 98.843 175.5892
317.645367 98.904 175.5019
319.947156 98.956 175.4089
322.265625 99.000 175.3111
324.600895 99.033 175.2091
326.953086 99.056 175.1040
329.322323 99.068 174.9964
331.708729 99.069 174.8870
334.112427 99.058 174.7766
336.533543 99.036 174.6655
338.972204 99.004 174.5545
341.428536 98.961 174.4438
343.902668 98.909 174.3339
346.394729 98.850 174.2249
348.904848 98.785 174.1170
351.433156 98.715 174.0103
353.979786 98.644 173.9046
356.544869 98.573 173.7998
359.128540 98.505 173.6959
361.730934 98.444 173.5929
364.352185 98.391 173.4908
366.992431 98.350 173.3899
369.651810 98.323 173.2902
372.330459 98.311 173.1920
375.028519 98.316 173.0955
377.746130 98.337 173.0008
380.483434 98.375 172.9081
383.240574 98.427 172.8176
386.017693 98.492 172.7296
388.814937 98.566 172.6443
391.632450 98.649 172.5622
394.470380 98.735 172.4839
397.328875 98.824 172.4101
400.208084 98.913 172.3414
403.108157 99.000 172.2783
406.029245 99.085 172.2215
408.971500 99.166 172.1713
411.935076 99.244 172.1280
414.920127 99.318 172.0920
417.926810 99.389 172.0634
420.955280 99.458 172.0426
424.005695 99.526 172.0299
427.078215 99.594 172.0258
430.173000 99.662 172.0305
433.290211 99.731 172.0447
436.430010 99.800 172.0687
439.592562 99.870 172.1026
442.778031 99.938 172.1467
445.986583 100.005 172.2008
449.218386 100.069 172.2646
452.473607 100.129 172.3375
455.752418 100.182 172.4186
459.054987 100.228 172.5067
462.381489 100.267 172.6005
465.732096 100.296 172.6984
469.106983 100.317 172.7986
472.506325 100.330 172.8992
475.930301 100.335 172.9984
479.379088 100.332 173.0942
482.852867 100.324 173.1848
486.351817 100.310 173.2687
489.876123 100.292 173.3447
493.425968 100.270 173.4117
497.001536 100.245 173.4691
500.603014 100.218 173.5164
504.230589 100.188 173.5535
507.884452 100.155 173.5801
511.564792 100.119 173.5964
515.271802 100.081 173.6024
519.005673 100.040 173.5984
522.766602 99.998 173.5850
526.554785 99.956 173.5626
530.370418 99.914 173.5323
534.213700 99.876 173.4952
538.084833 99.842 173.4521
541.984018 99.816 173.4041
545.911457 99.797 173.3515
549.867357 99.787 173.2946
553.851922 99.786 173.2329
557.865362 99.793 173.1657
561.907884 99.807 173.0923
565.979700 99.825 173.0117
570.081022 99.846 172.9236
574.212064 99.868 172.8277
578.373042 99.887 172.7243
582.564171 99.902 172.6143
586.785671 99.912 172.4987
591.037762 99.914 172.3795
595.320665 99.908 172.2584
599.634604 99.893 172.1375
603.979804 99.869 172.0192
608.356491 99.837 171.9055
612.764893 99.796 171.7982
617.205240 99.748 171.6992
621.677763 99.694 171.6098
626.182696 99.635 171.5311
630.720274 99.573 171.4637
635.290733 99.511 171.4081
639.894312 99.450 171.3644
644.531250 99.391 171.3325
649.201789 99.338 171.3120
653.906173 99.292 171.3025
658.644647 99.252 171.3032
663.417457 99.220 171.3135
668.224854 99.196 171.3325
673.067086 99.178 171.3595
677.944408 99.165 171.3935
682.857073 99.156 171.4336
687.805336 99.150 171.4789
692.789457 99.144 171.5284
697.809695 99.137 171.5812
702.866312 99.128 171.6364
707.959571 99.117 171.6932
713.089738 99.102 171.7509
718.257080 99.083 171.8087
723.461867 99.061 171.8663
728.704370 99.035 171.9231
733.984862 99.005 171.9789
739.303619 98.973 172.0336
744.660918 98.939 172.0868
750.057038 98.904 172.1383
755.492260 98.868 172.1880
760.966869 98.831 172.2356
766.481148 98.793 172.2807
772.035387 98.755 172.3231
777.629873 98.715 172.3625
783.264900 98.673 172.3991
788.940760 98.627 172.4330
794.657750 98.578 172.4645
800.416168 98.523 172.4943
806.216313 98.462 172.5233
812.058489 98.395 172.5521
817.943000 98.320 172.5818
823.870152 98.239 172.6133
829.840255 98.152 172.6473
835.853619 98.058 172.6844
841.910559 97.960 172.7252
848.011390 97.858 172.7698
854.156430 97.754 172.8179
860.346000 97.648 172.8693
866.580422 97.543 172.9230
872.860020 97.439 172.9780
879.185124 97.338 173.0328
885.556062 97.242 173.0855
891.973166 97.151 173.1337
898.436771 97.068 173.1747
904.947215 96.991 173.2057
911.504835 96.924 173.2234
918.109975 96.865 173.2254
924.762978 96.815 173.2097
931.464192 96.773 173.1758
938.213966 96.738 173.1250
945.012651 96.710 173.0607
951.860602 96.687 172.9887
958.758176 96.667 172.9164
965.705733 96.650 172.8525
972.703635 96.635 172.8062
979.752246 96.621 172.7858
986.851935 96.610 172.7986
994.003071 96.600 172.8508
1001.206027 96.594 172.9468
1008.461179 96.592 173.0902
1015.768904 96.596 173.2840
1023.129584 96.607 173.5307
1030.543603 96.628 173.8324
1038.011347 96.661 174.1909
1045.533205 96.709 174.6068
1053.109569 96.774 175.0785
1060.740836 96.858 175.6017
1068.427401 96.964 176.1673
1076.169666 97.092 176.7610
1083.968035 97.243 177.3617
1091.822915 97.413 177.9427
1099.734713 97.602 178.4722
1107.703844 97.803 178.9173
1115.730723 98.010 179.2473
1123.815768 98.217 179.4392
1131.959400 98.416 179.4816
1140.162045 98.602 179.3767
1148.424129 98.769 179.1404
1156.746083 98.914 178.7985
1165.128342 99.036 178.3825
1173.571343 99.136 177.9248
1182.075524 99.216 177.4548
1190.641331 99.279 176.9971
1199.269209 99.328 176.5701
1207.959608 99.367 176.1866
1216.712981 99.399 175.8539
1225.529785 99.427 175.5753
1234.410479 99.452 175.3510
1243.355526 99.476 175.1788
1252.365393 99.498 175.0551
1261.440549 99.521 174.9755
1270.581467 99.542 174.9354
1279.788624 99.563 174.9301
1289.062500 99.583 174.9556
1298.403578 99.601 175.0081
1307.812346 99.618 175.0849
1317.289293 99.634 175.1835
1326.834914 99.649 175.3021
1336.449707 99.663 175.4388
1346.134173 99.677 175.5920
1355.888816 99.692 175.7598
1365.714145 99.708 175.9397
1375.610673 99.724 176.1293
1385.578915 99.742 176.3259
1395.619391 99.761 176.5266
1405.732624 99.782 176.7284
1415.919142 99.804 176.9285
1426.179476 99.829 177.1242
1436.514160 99.856 177.3130
1446.923734 99.885 177.4925
1457.408740 99.918 177.6605
1467.969724 99.955 177.8150
1478.607238 99.996 177.9543
1489.321836 100.042 178.0767
1500.114076 100.092 178.1812
1510.984521 100.148 178.2669
1521.933737 100.208 178.3331
1532.962297 100.272 178.3797
1544.070773 100.340 178.4067
1555.259747 100.410 178.4147
1566.529800 100.483 178.4044
1577.881521 100.557 178.3768
1589.315501 100.631 178.3334
1600.832336 100.705 178.2755
1612.432627 100.778 178.2045
1624.116978 100.850 178.1216
1635.886000 100.919 178.0276
1647.740304 100.987 177.9235
1659.680509 101.053 177.8098
1671.707238 101.117 177.6867
1683.821118 101.179 177.5546
1696.022780 101.239 177.4137
1708.312860 101.298 177.2641
1720.692000 101.356 177.1061
1733.160843 101.413 176.9399
1745.720041 101.468 176.7661
1758.370248 101.522 176.5849
1771.112124 101.574 176.3970
1783.946332 101.625 176.2029
1796.873543 101.672 176.0034
1809.894429 101.716 175.7989
1823.009670 101.757 175.5902
1836.219950 101.794 175.3779
1849.525956 101.828 175.1627
1862.928384 101.857 174.9453
1876.427931 101.882 174.7264
1890.025301 101.904 174.5065
1903.721204 101.923 174.2864
1917.516352 101.938 174.0665
1931.411466 101.950 173.8474
1945.407270 101.959 173.6297
1959.504493 101.963 173.4137
1973.703870 101.963 173.2000
1988.006142 101.957 172.9892
2002.412054 101.945 172.7819
2016.922357 101.925 172.5788
2031.537808 101.897 172.3807
2046.259169 101.861 172.1884
2061.087206 101.814 172.0027
2076.022694 101.758 171.8246
2091.066410 101.692 171.6549
2106.219139 101.617 171.4947
2121.481671 101.533 171.3448
2136.854802 101.442 171.2065
2152.339333 101.344 171.0806
2167.936071 101.241 170.9680
2183.645829 101.134 170.8693
2199.469427 101.026 170.7847
2215.407689 100.917 170.7140
2231.461446 100.808 170.6566
2247.631536 100.701 170.6115
2263.918800 100.597 170.5776
2280.324089 100.495 170.5537
2296.848258 100.397 170.5389
2313.492167 100.302 170.5324
2330.256685 100.209 170.5342
2347.142685 100.118 170.5443
2364.151049 100.030 170.5634
2381.282662 99.943 170.5927
2398.538418 99.857 170.6332
2415.919216 99.772 170.6868
2433.425962 99.689 170.7549
2451.059570 99.607 170.8392
2468.820958 99.526 170.9412
2486.711052 99.448 171.0621
2504.730786 99.372 171.2030
2522.881098 99.301 171.3643
2541.162934 99.233 171.5463
2559.577248 99.172 171.7485
2578.125000 99.117 171.9704
2596.807157 99.070 172.2107
2615.624692 99.032 172.4678
2634.578586 99.005 172.7399
2653.669829 98.990 173.0249
2672.899414 98.988 173.3202
2692.268345 98.999 173.6232
2711.777632 99.023 173.9307
2731.428290 99.060 174.2396
2751.221345 99.110 174.5464
2771.157829 99.170 174.8482
2791.238781 99.240 175.1420
2811.465248 99.316 175.4256
2831.838284 99.396 175.6974
2852.358952 99.478 175.9564
2873.028321 99.559 176.2023
2893.847468 99.638 176.4351
2914.817480 99.711 176.6550
2935.939449 99.777 176.8626
2957.214476 99.836 177.0583
2978.643672 99.885 177.2428
3000.228152 99.923 177.4169
3021.969041 99.951 177.5818
3043.867475 99.968 177.7391
3065.924593 99.974 177.8904
3088.141547 99.968 178.0382
3110.519493 99.952 178.1849
3133.059600 99.926 178.3331
3155.763041 99.891 178.4857
3178.631001 99.848 178.6454
3201.664672 99.798 178.8151
3224.865254 99.741 178.9976
