* Measurement data measured by REW V5.31.3
* Source: EXCL: Headset (USB-C to 3.5mm Headphone Jack Adapter), MICROPHONE (Master Volume), 0, volume: 0.250
* Format: 256k Log Swept Sine, 1 sweep at -12.0 dBFS with no timing reference
* Dated: Feb 9, 2025 6:25:55 PM
* REW Settings:
*  C-weighting compensation: Off
*  Target level: 75.0 dB
* Note: ; 
* Measurement: Satyr 2 (Geekria) R5
* Smoothing: 1/6 octave
* Frequency Step: 96 ppo
* Start Frequency: 20.0 Hz
*
* Freq(Hz) SPL(dB) Phase(degrees)
20.141602 97.674 -47.6246
20.287556 97.685 -47.8807
20.434568 97.698 -48.2227
20.582645 97.711 -48.6398
20.731796 97.720 -49.1199
20.882027 97.723 -49.6510
21.033346 97.720 -50.2216
21.185763 97.707 -50.8213
21.339284 97.686 -51.4411
21.493917 97.656 -52.0735
21.649671 97.618 -52.7123
21.806553 97.574 -53.3529
21.964572 97.524 -53.9919
22.123737 97.472 -54.6270
22.284054 97.417 -55.2568
22.445534 97.364 -55.8809
22.608183 97.312 -56.4995
22.772012 97.264 -57.1130
22.937027 97.222 -57.7227
23.103238 97.186 -58.3298
23.270654 97.157 -58.9357
23.439282 97.138 -59.5422
23.609133 97.129 -60.1508
23.780215 97.130 -60.7631
23.952536 97.143 -61.3804
24.126106 97.168 -62.0038
24.300934 97.204 -62.6339
24.477028 97.251 -63.2708
24.654399 97.308 -63.9141
24.833055 97.374 -64.5627
25.013005 97.448 -65.2153
25.194260 97.528 -65.8697
25.376828 97.612 -66.5240
25.560719 97.698 -67.1760
25.745942 97.784 -67.8241
25.932508 97.870 -68.4668
26.120426 97.953 -69.1038
26.309705 98.033 -69.7353
26.500356 98.108 -70.3624
26.692388 98.179 -70.9870
26.885812 98.245 -71.6114
27.080638 98.305 -72.2379
27.276876 98.360 -72.8689
27.474535 98.411 -73.5061
27.673627 98.458 -74.1506
27.874161 98.503 -74.8025
28.076149 98.548 -75.4611
28.279600 98.596 -76.1248
28.484526 98.650 -76.7916
28.690937 98.713 -77.4591
28.898843 98.787 -78.1248
29.108256 98.876 -78.7868
29.319186 98.980 -79.4435
29.531645 99.101 -80.0943
29.745644 99.239 -80.7389
29.961193 99.390 -81.3776
30.178304 99.552 -82.0111
30.396989 99.720 -82.6402
30.617258 99.890 -83.2654
30.839123 100.055 -83.8872
31.062596 100.212 -84.5057
31.287688 100.354 -85.1206
31.514412 100.479 -85.7317
31.742778 100.581 -86.3389
31.972800 100.658 -86.9422
32.204488 100.708 -87.5422
32.437855 100.730 -88.1395
32.672913 100.725 -88.7354
32.909674 100.692 -89.3313
33.148151 100.634 -89.9283
33.388356 100.553 -90.5277
33.630302 100.451 -91.1303
33.874001 100.332 -91.7364
34.119466 100.199 -92.3460
34.366710 100.057 -92.9588
34.615745 99.910 -93.5744
34.866585 99.762 -94.1922
35.119243 99.616 -94.8118
35.373731 99.478 -95.4329
35.630064 99.350 -96.0552
35.888254 99.235 -96.6786
36.148315 99.137 -97.3029
36.410261 99.056 -97.9277
36.674104 98.996 -98.5525
36.939860 98.957 -99.1770
37.207542 98.940 -99.8003
37.477163 98.946 -100.4219
37.748738 98.974 -101.0411
38.022281 99.023 -101.6574
38.297806 99.094 -102.2707
38.575327 99.186 -102.8809
38.854860 99.296 -103.4883
39.136419 99.425 -104.0933
39.420017 99.572 -104.6966
39.705671 99.734 -105.2989
39.993395 99.911 -105.9007
40.283203 100.101 -106.5026
40.575112 100.304 -107.1048
40.869136 100.519 -107.7072
41.165290 100.743 -108.3095
41.463591 100.975 -108.9110
41.764053 101.214 -109.5107
42.066693 101.457 -110.1076
42.371525 101.703 -110.7008
42.678567 101.949 -111.2898
42.987834 102.193 -111.8745
43.299341 102.432 -112.4557
43.613106 102.665 -113.0347
43.929145 102.889 -113.6133
44.247473 103.102 -114.1933
44.568109 103.302 -114.7762
44.891068 103.486 -115.3630
45.216367 103.655 -115.9538
45.544023 103.805 -116.5479
45.874054 103.938 -117.1444
46.206476 104.053 -117.7418
46.541307 104.149 -118.3389
46.878565 104.227 -118.9347
47.218266 104.288 -119.5291
47.560429 104.332 -120.1221
47.905072 104.361 -120.7144
48.252212 104.375 -121.3068
48.601867 104.377 -121.8995
48.954056 104.367 -122.4925
49.308798 104.348 -123.0845
49.666109 104.320 -123.6741
50.026010 104.286 -124.2592
50.388520 104.247 -124.8380
50.753656 104.205 -125.4091
51.121437 104.163 -125.9720
51.491884 104.120 -126.5263
51.865016 104.079 -127.0723
52.240851 104.041 -127.6107
52.619410 104.005 -128.1421
53.000712 103.973 -128.6673
53.384777 103.945 -129.1873
53.771625 103.920 -129.7030
54.161276 103.898 -130.2152
54.553751 103.878 -130.7245
54.949070 103.859 -131.2314
55.347254 103.840 -131.7364
55.748323 103.820 -132.2399
56.152298 103.798 -132.7421
56.559201 103.774 -133.2434
56.969052 103.747 -133.7441
57.381873 103.717 -134.2442
57.797686 103.684 -134.7438
58.216512 103.647 -135.2428
58.638373 103.608 -135.7409
59.063291 103.566 -136.2378
59.491288 103.522 -136.7331
59.922386 103.476 -137.2263
60.356608 103.429 -137.7173
60.793977 103.381 -138.2058
61.234515 103.333 -138.6922
61.678246 103.285 -139.1766
62.125192 103.237 -139.6597
62.575377 103.189 -140.1417
63.028824 103.142 -140.6231
63.485557 103.096 -141.1040
63.945599 103.051 -141.5840
64.408975 103.008 -142.0629
64.875709 102.968 -142.5397
65.345825 102.930 -143.0135
65.819348 102.895 -143.4834
66.296302 102.863 -143.9485
66.776713 102.833 -144.4081
67.260604 102.807 -144.8620
67.748002 102.784 -145.3105
68.238932 102.764 -145.7537
68.733420 102.745 -146.1920
69.231490 102.729 -146.6257
69.733170 102.715 -147.0548
70.238485 102.702 -147.4795
70.747463 102.691 -147.8996
71.260128 102.681 -148.3152
71.776508 102.673 -148.7260
72.296630 102.665 -149.1321
72.820521 102.659 -149.5334
73.348209 102.654 -149.9297
73.879720 102.650 -150.3213
74.415083 102.647 -150.7082
74.954326 102.644 -151.0907
75.497475 102.643 -151.4689
76.044561 102.641 -151.8429
76.595612 102.639 -152.2129
77.150655 102.637 -152.5789
77.709720 102.633 -152.9412
78.272837 102.628 -153.3000
78.840034 102.621 -153.6556
79.411342 102.612 -154.0083
79.986789 102.600 -154.3586
80.566406 102.585 -154.7068
81.150224 102.567 -155.0536
81.738272 102.547 -155.3993
82.330581 102.526 -155.7444
82.927182 102.503 -156.0893
83.528107 102.482 -156.4346
84.133386 102.462 -156.7805
84.743051 102.447 -157.1278
85.357134 102.439 -157.4768
85.975667 102.442 -157.8281
86.598682 102.458 -158.1820
87.226212 102.490 -158.5386
87.858289 102.542 -158.8977
88.494946 102.617 -159.2591
89.136217 102.715 -159.6224
89.782135 102.836 -159.9872
90.432733 102.981 -160.3531
91.088046 103.146 -160.7199
91.748108 103.328 -161.0875
92.412952 103.522 -161.4557
93.082615 103.723 -161.8247
93.757130 103.925 -162.1945
94.436533 104.123 -162.5655
95.120859 104.313 -162.9377
95.810144 104.490 -163.3112
96.504423 104.651 -163.6858
97.203734 104.796 -164.0611
97.908112 104.922 -164.4366
98.617595 105.031 -164.8119
99.332219 105.123 -165.1866
100.052021 105.200 -165.5602
100.777039 105.265 -165.9324
101.507311 105.318 -166.3032
102.242875 105.363 -166.6724
102.983769 105.401 -167.0398
103.730032 105.433 -167.4053
104.481702 105.460 -167.7692
105.238820 105.482 -168.1314
106.001424 105.498 -168.4922
106.769554 105.506 -168.8517
107.543250 105.506 -169.2100
108.322553 105.495 -169.5668
109.107503 105.472 -169.9222
109.898141 105.437 -170.2759
110.694508 105.387 -170.6275
111.496646 105.324 -170.9769
112.304596 105.247 -171.3237
113.118402 105.158 -171.6677
113.938104 105.059 -172.0085
114.763747 104.950 -172.3457
115.595372 104.836 -172.6790
116.433024 104.717 -173.0080
117.276746 104.596 -173.3324
118.126581 104.475 -173.6520
118.982575 104.356 -173.9665
119.844772 104.238 -174.2760
120.713217 104.124 -174.5801
121.587954 104.012 -174.8787
122.469031 103.903 -175.1717
123.356492 103.794 -175.4588
124.250384 103.686 -175.7402
125.150753 103.576 -176.0158
126.057647 103.463 -176.2859
126.971113 103.347 -176.5508
127.891198 103.225 -176.8112
128.817950 103.098 -177.0679
129.751418 102.964 -177.3219
130.691651 102.825 -177.5744
131.638696 102.682 -177.8268
132.592604 102.535 -178.0802
133.553425 102.387 -178.3360
134.521208 102.241 -178.5950
135.496004 102.099 -178.8578
136.477864 101.965 -179.1247
137.466839 101.842 -179.3955
138.462981 101.734 -179.6697
139.466340 101.642 -179.9468
140.476971 101.568 179.7738
141.494925 101.513 179.4929
142.520256 101.476 179.2108
143.553016 101.454 178.9282
144.593260 101.446 178.6452
145.641043 101.447 178.3624
146.696418 101.452 178.0803
147.759441 101.459 177.7993
148.830166 101.464 177.5199
149.908651 101.463 177.2426
150.994951 101.456 176.9680
152.089123 101.440 176.6965
153.191223 101.415 176.4283
154.301310 101.384 176.1638
155.419441 101.345 175.9033
156.545674 101.303 175.6471
157.680069 101.257 175.3959
158.822683 101.210 175.1501
159.973578 101.164 174.9102
161.132813 101.120 174.6768
162.300447 101.078 174.4502
163.476543 101.039 174.2310
164.661162 101.005 174.0197
165.854364 100.974 173.8167
167.056213 100.947 173.6221
168.266772 100.925 173.4361
169.486102 100.908 173.2585
170.714268 100.895 173.0888
171.951334 100.888 172.9265
173.197364 100.887 172.7707
174.452424 100.891 172.6205
175.716578 100.900 172.4749
176.989893 100.913 172.3329
178.272434 100.931 172.1933
179.564270 100.951 172.0550
180.865467 100.973 171.9171
182.176092 100.995 171.7784
183.496216 101.017 171.6383
184.825905 101.037 171.4957
186.165229 101.055 171.3498
187.514259 101.070 171.1998
188.873065 101.083 171.0449
190.241717 101.094 170.8846
191.620287 101.102 170.7183
193.008847 101.109 170.5457
194.407468 101.116 170.3670
195.816225 101.121 170.1821
197.235190 101.126 169.9910
198.664438 101.130 169.7939
200.104042 101.133 169.5909
201.554078 101.133 169.3821
203.014622 101.132 169.1681
204.485750 101.128 168.9493
205.967538 101.120 168.7266
207.460064 101.108 168.5006
208.963405 101.092 168.2723
210.477640 101.071 168.0427
212.002848 101.047 167.8128
213.539108 101.018 167.5839
215.086500 100.986 167.3573
216.645105 100.950 167.1342
218.215005 100.911 166.9160
219.796281 100.869 166.7037
221.389015 100.824 166.4982
222.993292 100.776 166.2999
224.609193 100.724 166.1095
226.236804 100.667 165.9272
227.876209 100.605 165.7533
229.527494 100.538 165.5881
231.190745 100.466 165.4316
232.866048 100.388 165.2842
234.553491 100.304 165.1458
236.253163 100.216 165.0164
237.965150 100.124 164.8960
239.689544 100.029 164.7843
241.426433 99.932 164.6810
243.175909 99.834 164.5854
244.938062 99.737 164.4971
246.712984 99.642 164.4155
248.500768 99.548 164.3399
250.301507 99.458 164.2700
252.115295 99.372 164.2053
253.942226 99.291 164.1454
255.782396 99.216 164.0898
257.635901 99.146 164.0377
259.502837 99.083 163.9884
261.383301 99.028 163.9410
263.277392 98.979 163.8949
265.185209 98.938 163.8494
267.106850 98.904 163.8038
269.042417 98.878 163.7578
270.992009 98.857 163.7108
272.955729 98.843 163.6624
274.933678 98.834 163.6122
276.925961 98.830 163.5598
278.932681 98.829 163.5052
280.953942 98.832 163.4479
282.989850 98.837 163.3880
285.040511 98.846 163.3253
287.106032 98.857 163.2598
289.186521 98.872 163.1914
291.282086 98.891 163.1202
293.392836 98.916 163.0461
295.518881 98.946 162.9694
297.660333 98.981 162.8900
299.817302 99.022 162.8083
301.989902 99.068 162.7247
304.178245 99.117 162.6396
306.382446 99.167 162.5538
308.602620 99.218 162.4676
310.838882 99.267 162.3817
313.091348 99.313 162.2964
315.360137 99.354 162.2122
317.645367 99.388 162.1295
319.947156 99.415 162.0480
322.265625 99.434 161.9679
324.600895 99.444 161.8888
326.953086 99.444 161.8102
329.322323 99.435 161.7317
331.708729 99.415 161.6526
334.112427 99.385 161.5723
336.533543 99.345 161.4902
338.972204 99.295 161.4059
341.428536 99.236 161.3187
343.902668 99.169 161.2283
346.394729 99.094 161.1344
348.904848 99.013 161.0366
351.433156 98.928 160.9350
353.979786 98.841 160.8294
356.544869 98.754 160.7201
359.128540 98.670 160.6073
361.730934 98.591 160.4916
364.352185 98.520 160.3734
366.992431 98.460 160.2534
369.651810 98.413 160.1323
372.330459 98.380 160.0112
375.028519 98.363 159.8912
377.746130 98.363 159.7735
380.483434 98.378 159.6595
383.240574 98.407 159.5504
386.017693 98.448 159.4478
388.814937 98.499 159.3531
391.632450 98.558 159.2679
394.470380 98.621 159.1935
397.328875 98.687 159.1315
400.208084 98.753 159.0830
403.108157 98.818 159.0489
406.029245 98.881 159.0300
408.971500 98.941 159.0267
411.935076 98.998 159.0390
414.920127 99.052 159.0671
417.926810 99.105 159.1106
420.955280 99.157 159.1692
424.005695 99.208 159.2423
427.078215 99.261 159.3294
430.173000 99.315 159.4297
433.290211 99.371 159.5422
436.430010 99.430 159.6658
439.592562 99.491 159.7992
442.778031 99.552 159.9406
445.986583 99.614 160.0882
449.218386 99.675 160.2396
452.473607 99.733 160.3922
455.752418 99.786 160.5433
459.054987 99.834 160.6897
462.381489 99.875 160.8283
465.732096 99.908 160.9559
469.106983 99.933 161.0693
472.506325 99.950 161.1656
475.930301 99.959 161.2424
479.379088 99.960 161.2974
482.852867 99.955 161.3291
486.351817 99.943 161.3365
489.876123 99.926 161.3189
493.425968 99.904 161.2765
497.001536 99.877 161.2097
500.603014 99.845 161.1195
504.230589 99.809 161.0072
507.884452 99.767 160.8746
511.564792 99.719 160.7236
515.271802 99.666 160.5567
519.005673 99.607 160.3763
522.766602 99.543 160.1851
526.554785 99.474 159.9857
530.370418 99.403 159.7806
534.213700 99.331 159.5724
538.084833 99.258 159.3636
541.984018 99.188 159.1567
545.911457 99.120 158.9550
549.867357 99.056 158.7619
553.851922 98.995 158.5819
557.865362 98.938 158.4204
561.907884 98.882 158.2837
565.979700 98.827 158.1790
570.081022 98.771 158.1145
574.212064 98.712 158.0985
578.373042 98.649 158.1395
582.564171 98.582 158.2455
586.785671 98.510 158.4232
591.037762 98.434 158.6773
595.320665 98.355 159.0097
599.634604 98.273 159.4187
603.979804 98.192 159.8986
608.356491 98.112 160.4395
612.764893 98.037 161.0281
617.205240 97.968 161.6482
621.677763 97.907 162.2821
626.182696 97.856 162.9117
630.720274 97.817 163.5199
635.290733 97.789 164.0914
639.894312 97.775 164.6137
644.531250 97.773 165.0776
649.201789 97.783 165.4773
653.906173 97.805 165.8102
658.644647 97.837 166.0765
663.417457 97.877 166.2792
668.224854 97.923 166.4225
673.067086 97.972 166.5123
677.944408 98.022 166.5551
682.857073 98.070 166.5582
687.805336 98.115 166.5293
692.789457 98.153 166.4761
697.809695 98.184 166.4063
702.866312 98.207 166.3275
707.959571 98.222 166.2465
713.089738 98.227 166.1700
718.257080 98.223 166.1036
723.461867 98.211 166.0519
728.704370 98.193 166.0184
733.984862 98.168 166.0051
739.303619 98.139 166.0128
744.660918 98.107 166.0411
750.057038 98.073 166.0891
755.492260 98.039 166.1555
760.966869 98.004 166.2389
766.481148 97.969 166.3376
772.035387 97.935 166.4501
777.629873 97.902 166.5748
783.264900 97.868 166.7100
788.940760 97.833 166.8533
794.657750 97.798 167.0022
800.416168 97.761 167.1536
806.216313 97.721 167.3037
812.058489 97.679 167.4482
817.943000 97.635 167.5820
823.870152 97.588 167.6995
829.840255 97.540 167.7946
835.853619 97.489 167.8612
841.910559 97.437 167.8942
848.011390 97.384 167.8893
854.156430 97.330 167.8438
860.346000 97.275 167.7568
866.580422 97.219 167.6290
872.860020 97.162 167.4630
879.185124 97.104 167.2628
885.556062 97.046 167.0337
891.973166 96.987 166.7819
898.436771 96.928 166.5143
904.947215 96.871 166.2382
911.504835 96.815 165.9607
918.109975 96.763 165.6888
924.762978 96.714 165.4285
931.464192 96.670 165.1851
938.213966 96.633 164.9627
945.012651 96.602 164.7641
951.860602 96.578 164.5905
958.758176 96.563 164.4417
965.705733 96.555 164.3160
972.703635 96.555 164.2116
979.752246 96.562 164.1257
986.851935 96.576 164.0557
994.003071 96.597 163.9992
1001.206027 96.625 163.9536
1008.461179 96.659 163.9164
1015.768904 96.699 163.8853
1023.129584 96.747 163.8581
1030.543603 96.803 163.8327
1038.011347 96.867 163.8067
1045.533205 96.940 163.7780
1053.109569 97.022 163.7442
1060.740836 97.113 163.7031
1068.427401 97.212 163.6528
1076.169666 97.318 163.5919
1083.968035 97.430 163.5196
1091.822915 97.546 163.4353
1099.734713 97.664 163.3388
1107.703844 97.783 163.2303
1115.730723 97.899 163.1100
1123.815768 98.011 162.9781
1131.959400 98.119 162.8352
1140.162045 98.220 162.6813
1148.424129 98.315 162.5165
1156.746083 98.404 162.3407
1165.128342 98.487 162.1532
1173.571343 98.564 161.9532
1182.075524 98.638 161.7399
1190.641331 98.708 161.5121
1199.269209 98.776 161.2689
1207.959608 98.843 161.0095
1216.712981 98.909 160.7335
1225.529785 98.973 160.4408
1234.410479 99.036 160.1312
1243.355526 99.097 159.8048
1252.365393 99.155 159.4616
1261.440549 99.209 159.1015
1270.581467 99.258 158.7245
1279.788624 99.300 158.3311
1289.062500 99.336 157.9221
1298.403578 99.363 157.4995
1307.812346 99.381 157.0665
1317.289293 99.390 156.6270
1326.834914 99.390 156.1862
1336.449707 99.380 155.7500
1346.134173 99.361 155.3251
1355.888816 99.334 154.9183
1365.714145 99.298 154.5353
1375.610673 99.256 154.1805
1385.578915 99.206 153.8563
1395.619391 99.152 153.5634
1405.732624 99.092 153.3011
1415.919142 99.028 153.0682
1426.179476 98.960 152.8631
1436.514160 98.888 152.6849
1446.923734 98.814 152.5333
1457.408740 98.737 152.4092
1467.969724 98.659 152.3148
1478.607238 98.579 152.2537
1489.321836 98.499 152.2307
1500.114076 98.420 152.2507
1510.984521 98.342 152.3188
1521.933737 98.267 152.4384
1532.962297 98.196 152.6109
1544.070773 98.130 152.8354
1555.259747 98.069 153.1091
1566.529800 98.014 153.4281
1577.881521 97.965 153.7875
1589.315501 97.921 154.1828
1600.832336 97.882 154.6104
1612.432627 97.847 155.0682
1624.116978 97.817 155.5554
1635.886000 97.790 156.0720
1647.740304 97.767 156.6186
1659.680509 97.749 157.1960
1671.707238 97.737 157.8046
1683.821118 97.731 158.4435
1696.022780 97.732 159.1105
1708.312860 97.741 159.8016
1720.692000 97.760 160.5112
1733.160843 97.789 161.2324
1745.720041 97.828 161.9567
1758.370248 97.878 162.6754
1771.112124 97.937 163.3795
1783.946332 98.004 164.0614
1796.873543 98.078 164.7146
1809.894429 98.159 165.3344
1823.009670 98.245 165.9163
1836.219950 98.335 166.4559
1849.525956 98.428 166.9485
1862.928384 98.523 167.3900
1876.427931 98.619 167.7786
1890.025301 98.716 168.1151
1903.721204 98.811 168.4032
1917.516352 98.905 168.6483
1931.411466 98.997 168.8567
1945.407270 99.086 169.0347
1959.504493 99.172 169.1872
1973.703870 99.256 169.3171
1988.006142 99.336 169.4245
2002.412054 99.412 169.5067
2016.922357 99.484 169.5591
2031.537808 99.549 169.5777
2046.259169 99.607 169.5598
2061.087206 99.656 169.5049
2076.022694 99.696 169.4156
2091.066410 99.726 169.2960
2106.219139 99.747 169.1505
2121.481671 99.759 168.9825
2136.854802 99.764 168.7938
2152.339333 99.763 168.5844
2167.936071 99.759 168.3528
2183.645829 99.753 168.0973
2199.469427 99.745 167.8156
2215.407689 99.737 167.5056
2231.461446 99.731 167.1648
2247.631536 99.725 166.7906
2263.918800 99.721 166.3803
2280.324089 99.718 165.9314
2296.848258 99.716 165.4419
2313.492167 99.712 164.9113
2330.256685 99.706 164.3406
2347.142685 99.697 163.7333
2364.151049 99.682 163.0945
2381.282662 99.662 162.4306
2398.538418 99.636 161.7477
2415.919216 99.603 161.0513
2433.425962 99.563 160.3461
2451.059570 99.517 159.6360
2468.820958 99.464 158.9247
2486.711052 99.406 158.2162
2504.730786 99.341 157.5145
2522.881098 99.271 156.8233
2541.162934 99.197 156.1461
2559.577248 99.119 155.4852
2578.125000 99.038 154.8429
2596.807157 98.956 154.2208
2615.624692 98.873 153.6203
2634.578586 98.790 153.0431
2653.669829 98.708 152.4907
2672.899414 98.627 151.9655
2692.268345 98.549 151.4702
2711.777632 98.472 151.0086
2731.428290 98.397 150.5854
2751.221345 98.323 150.2065
2771.157829 98.250 149.8790
2791.238781 98.176 149.6112
2811.465248 98.100 149.4120
2831.838284 98.022 149.2902
2852.358952 97.941 149.2537
2873.028321 97.856 149.3099
2893.847468 97.766 149.4647
2914.817480 97.672 149.7229
2935.939449 97.573 150.0886
2957.214476 97.469 150.5649
2978.643672 97.360 151.1544
3000.228152 97.247 151.8589
3021.969041 97.132 152.6791
3043.867475 97.015 153.6143
3065.924593 96.899 154.6618
3088.141547 96.786 155.8159
3110.519493 96.678 157.0682
3133.059600 96.580 158.4066
3155.763041 96.492 159.8152
3178.631001 96.419 161.2750
3201.664672 96.362 162.7635
3224.865254 96.323 164.2569
3248.233957 96.302 165.7303
3271.771999 96.300 167.1599
3295.480608 96.317 168.5244
