* Measurement data measured by REW V5.31.3
* Source: EXCL: Headset (USB-C to 3.5mm Headphone Jack Adapter), MICROPHONE (Master Volume), 0, volume: 0.250
* Format: 256k Log Swept Sine, 1 sweep at -12.0 dBFS with no timing reference
* Dated: Feb 9, 2025 6:23:51 PM
* REW Settings:
*  C-weighting compensation: Off
*  Target level: 75.0 dB
* Note: ; 
* Measurement: Satyr 2 (Geekria) R2
* Smoothing: 1/6 octave
* Frequency Step: 96 ppo
* Start Frequency: 20.0 Hz
*
* Freq(Hz) SPL(dB) Phase(degrees)
20.141602 97.898 -47.9819
20.287556 97.905 -48.2088
20.434568 97.913 -48.5120
20.582645 97.919 -48.8821
20.731796 97.921 -49.3091
20.882027 97.915 -49.7831
21.033346 97.902 -50.2951
21.185763 97.879 -50.8374
21.339284 97.847 -51.4034
21.493917 97.806 -51.9879
21.649671 97.757 -52.5866
21.806553 97.702 -53.1966
21.964572 97.643 -53.8155
22.123737 97.581 -54.4417
22.284054 97.520 -55.0743
22.445534 97.460 -55.7124
22.608183 97.406 -56.3558
22.772012 97.357 -57.0041
22.937027 97.317 -57.6571
23.103238 97.285 -58.3145
23.270654 97.264 -58.9757
23.439282 97.254 -59.6400
23.609133 97.254 -60.3063
23.780215 97.267 -60.9734
23.952536 97.291 -61.6399
24.126106 97.326 -62.3042
24.300934 97.372 -62.9651
24.477028 97.427 -63.6212
24.654399 97.492 -64.2716
24.833055 97.563 -64.9158
25.013005 97.641 -65.5537
25.194260 97.723 -66.1857
25.376828 97.807 -66.8125
25.560719 97.892 -67.4352
25.745942 97.976 -68.0552
25.932508 98.058 -68.6739
26.120426 98.137 -69.2924
26.309705 98.212 -69.9121
26.500356 98.282 -70.5338
26.692388 98.347 -71.1583
26.885812 98.406 -71.7859
27.080638 98.461 -72.4171
27.276876 98.512 -73.0518
27.474535 98.560 -73.6900
27.673627 98.606 -74.3313
27.874161 98.652 -74.9753
28.076149 98.700 -75.6213
28.279600 98.752 -76.2682
28.484526 98.811 -76.9148
28.690937 98.880 -77.5597
28.898843 98.961 -78.2011
29.108256 99.056 -78.8376
29.319186 99.165 -79.4678
29.531645 99.290 -80.0908
29.745644 99.429 -80.7063
29.961193 99.580 -81.3147
30.178304 99.741 -81.9171
30.396989 99.908 -82.5150
30.617258 100.076 -83.1104
30.839123 100.240 -83.7053
31.062596 100.395 -84.3015
31.287688 100.537 -84.9004
31.514412 100.662 -85.5029
31.742778 100.765 -86.1094
31.972800 100.843 -86.7197
32.204488 100.895 -87.3334
32.437855 100.920 -87.9501
32.672913 100.916 -88.5692
32.909674 100.885 -89.1907
33.148151 100.829 -89.8146
33.388356 100.748 -90.4410
33.630302 100.647 -91.0702
33.874001 100.527 -91.7024
34.119466 100.394 -92.3373
34.366710 100.250 -92.9747
34.615745 100.100 -93.6140
34.866585 99.948 -94.2543
35.119243 99.797 -94.8948
35.373731 99.653 -95.5348
35.630064 99.518 -96.1735
35.888254 99.397 -96.8104
36.148315 99.292 -97.4451
36.410261 99.205 -98.0772
36.674104 99.139 -98.7063
36.939860 99.095 -99.3320
37.207542 99.074 -99.9539
37.477163 99.076 -100.5717
37.748738 99.101 -101.1853
38.022281 99.150 -101.7948
38.297806 99.221 -102.4004
38.575327 99.312 -103.0029
38.854860 99.424 -103.6027
39.136419 99.554 -104.2006
39.420017 99.701 -104.7972
39.705671 99.865 -105.3930
39.993395 100.042 -105.9886
40.283203 100.234 -106.5843
40.575112 100.437 -107.1805
40.869136 100.651 -107.7777
41.165290 100.874 -108.3763
41.463591 101.105 -108.9765
41.764053 101.342 -109.5785
42.066693 101.583 -110.1824
42.371525 101.826 -110.7881
42.678567 102.069 -111.3954
42.987834 102.311 -112.0041
43.299341 102.548 -112.6137
43.613106 102.779 -113.2238
43.929145 103.001 -113.8334
44.247473 103.213 -114.4415
44.568109 103.414 -115.0468
44.891068 103.600 -115.6479
45.216367 103.771 -116.2433
45.544023 103.926 -116.8320
45.874054 104.063 -117.4133
46.206476 104.182 -117.9872
46.541307 104.283 -118.5543
46.878565 104.365 -119.1160
47.218266 104.430 -119.6738
47.560429 104.478 -120.2295
47.905072 104.509 -120.7848
48.252212 104.525 -121.3409
48.601867 104.529 -121.8983
48.954056 104.521 -122.4573
49.308798 104.503 -123.0174
49.666109 104.477 -123.5779
50.026010 104.445 -124.1377
50.388520 104.409 -124.6960
50.753656 104.370 -125.2520
51.121437 104.330 -125.8055
51.491884 104.291 -126.3566
51.865016 104.253 -126.9057
52.240851 104.218 -127.4533
52.619410 104.186 -128.0000
53.000712 104.158 -128.5459
53.384777 104.134 -129.0912
53.771625 104.113 -129.6358
54.161276 104.094 -130.1793
54.553751 104.078 -130.7215
54.949070 104.062 -131.2622
55.347254 104.045 -131.8012
55.748323 104.027 -132.3386
56.152298 104.007 -132.8747
56.559201 103.984 -133.4096
56.969052 103.957 -133.9435
57.381873 103.927 -134.4766
57.797686 103.893 -135.0086
58.216512 103.856 -135.5387
58.638373 103.816 -136.0659
59.063291 103.773 -136.5890
59.491288 103.728 -137.1069
59.922386 103.682 -137.6190
60.356608 103.635 -138.1254
60.793977 103.588 -138.6268
61.234515 103.540 -139.1243
61.678246 103.492 -139.6191
62.125192 103.445 -140.1122
62.575377 103.397 -140.6041
63.028824 103.350 -141.0950
63.485557 103.304 -141.5847
63.945599 103.260 -142.0731
64.408975 103.216 -142.5595
64.875709 103.175 -143.0437
65.345825 103.136 -143.5254
65.819348 103.100 -144.0043
66.296302 103.066 -144.4805
66.776713 103.035 -144.9538
67.260604 103.007 -145.4243
67.748002 102.982 -145.8921
68.238932 102.960 -146.3569
68.733420 102.941 -146.8184
69.231490 102.923 -147.2762
69.733170 102.907 -147.7297
70.238485 102.893 -148.1785
70.747463 102.880 -148.6224
71.260128 102.869 -149.0612
71.776508 102.858 -149.4947
72.296630 102.848 -149.9230
72.820521 102.840 -150.3460
73.348209 102.832 -150.7641
73.879720 102.825 -151.1774
74.415083 102.819 -151.5860
74.954326 102.813 -151.9902
75.497475 102.807 -152.3899
76.044561 102.802 -152.7851
76.595612 102.796 -153.1756
77.150655 102.789 -153.5615
77.709720 102.780 -153.9426
78.272837 102.770 -154.3188
78.840034 102.758 -154.6902
79.411342 102.743 -155.0568
79.986789 102.725 -155.4188
80.566406 102.704 -155.7766
81.150224 102.679 -156.1304
81.738272 102.653 -156.4809
82.330581 102.624 -156.8284
82.927182 102.594 -157.1737
83.528107 102.564 -157.5171
84.133386 102.536 -157.8591
84.743051 102.513 -158.1997
85.357134 102.496 -158.5392
85.975667 102.490 -158.8778
86.598682 102.496 -159.2154
87.226212 102.520 -159.5522
87.858289 102.563 -159.8882
88.494946 102.628 -160.2236
89.136217 102.718 -160.5585
89.782135 102.831 -160.8931
90.432733 102.968 -161.2274
91.088046 103.126 -161.5616
91.748108 103.301 -161.8958
92.412952 103.489 -162.2297
93.082615 103.685 -162.5636
93.757130 103.883 -162.8972
94.436533 104.077 -163.2307
95.120859 104.264 -163.5639
95.810144 104.438 -163.8970
96.504423 104.598 -164.2299
97.203734 104.740 -164.5625
97.908112 104.865 -164.8948
98.617595 104.973 -165.2265
99.332219 105.064 -165.5576
100.052021 105.140 -165.8877
100.777039 105.204 -166.2169
101.507311 105.257 -166.5450
102.242875 105.302 -166.8722
102.983769 105.340 -167.1986
103.730032 105.372 -167.5244
104.481702 105.399 -167.8497
105.238820 105.422 -168.1746
106.001424 105.438 -168.4995
106.769554 105.447 -168.8244
107.543250 105.448 -169.1494
108.322553 105.439 -169.4746
109.107503 105.418 -169.7997
109.898141 105.385 -170.1246
110.694508 105.337 -170.4489
111.496646 105.276 -170.7722
112.304596 105.201 -171.0943
113.118402 105.114 -171.4146
113.938104 105.016 -171.7328
114.763747 104.909 -172.0484
115.595372 104.796 -172.3610
116.433024 104.679 -172.6701
117.276746 104.559 -172.9752
118.126581 104.440 -173.2760
118.982575 104.321 -173.5721
119.844772 104.206 -173.8634
120.713217 104.093 -174.1498
121.587954 103.983 -174.4317
122.469031 103.875 -174.7092
123.356492 103.769 -174.9827
124.250384 103.662 -175.2523
125.150753 103.554 -175.5184
126.057647 103.444 -175.7811
126.971113 103.329 -176.0407
127.891198 103.209 -176.2977
128.817950 103.083 -176.5527
129.751418 102.950 -176.8065
130.691651 102.813 -177.0597
131.638696 102.670 -177.3132
132.592604 102.523 -177.5677
133.553425 102.376 -177.8238
134.521208 102.229 -178.0818
135.496004 102.087 -178.3421
136.477864 101.952 -178.6048
137.466839 101.827 -178.8699
138.462981 101.717 -179.1372
139.466340 101.622 -179.4064
140.476971 101.545 -179.6769
141.494925 101.486 -179.9483
142.520256 101.445 179.7800
143.553016 101.419 179.5085
144.593260 101.406 179.2381
145.641043 101.402 178.9693
146.696418 101.403 178.7028
147.759441 101.405 178.4391
148.830166 101.405 178.1791
149.908651 101.400 177.9232
150.994951 101.388 177.6722
152.089123 101.368 177.4268
153.191223 101.339 177.1877
154.301310 101.303 176.9558
155.419441 101.261 176.7319
156.545674 101.214 176.5169
157.680069 101.165 176.3114
158.822683 101.114 176.1161
159.973578 101.064 175.9311
161.132813 101.016 175.7567
162.300447 100.971 175.5930
163.476543 100.929 175.4396
164.661162 100.891 175.2966
165.854364 100.857 175.1637
167.056213 100.828 175.0406
168.266772 100.803 174.9272
169.486102 100.784 174.8232
170.714268 100.770 174.7280
171.951334 100.763 174.6412
173.197364 100.761 174.5622
174.452424 100.766 174.4901
175.716578 100.777 174.4241
176.989893 100.793 174.3631
178.272434 100.814 174.3058
179.564270 100.838 174.2508
180.865467 100.865 174.1967
182.176092 100.893 174.1418
183.496216 100.920 174.0849
184.825905 100.947 174.0247
186.165229 100.973 173.9603
187.514259 100.996 173.8907
188.873065 101.018 173.8152
190.241717 101.038 173.7334
191.620287 101.058 173.6444
193.008847 101.076 173.5478
194.407468 101.094 173.4428
195.816225 101.112 173.3289
197.235190 101.130 173.2055
198.664438 101.147 173.0724
200.104042 101.163 172.9299
201.554078 101.178 172.7784
203.014622 101.191 172.6191
204.485750 101.201 172.4530
205.967538 101.208 172.2813
207.460064 101.211 172.1052
208.963405 101.210 171.9255
210.477640 101.205 171.7429
212.002848 101.196 171.5578
213.539108 101.184 171.3703
215.086500 101.168 171.1807
216.645105 101.150 170.9889
218.215005 101.129 170.7950
219.796281 101.106 170.5992
221.389015 101.079 170.4016
222.993292 101.050 170.2022
224.609193 101.017 170.0015
226.236804 100.979 169.7997
227.876209 100.937 169.5974
229.527494 100.889 169.3950
231.190745 100.836 169.1927
232.866048 100.776 168.9910
234.553491 100.711 168.7900
236.253163 100.641 168.5897
237.965150 100.567 168.3900
239.689544 100.488 168.1913
241.426433 100.407 167.9936
243.175909 100.325 167.7973
244.938062 100.242 167.6027
246.712984 100.159 167.4100
248.500768 100.077 167.2195
250.301507 99.997 167.0311
252.115295 99.920 166.8447
253.942226 99.846 166.6602
255.782396 99.777 166.4777
257.635901 99.712 166.2971
259.502837 99.652 166.1190
261.383301 99.598 165.9439
263.277392 99.549 165.7722
265.185209 99.507 165.6043
267.106850 99.470 165.4408
269.042417 99.439 165.2820
270.992009 99.414 165.1281
272.955729 99.394 164.9794
274.933678 99.378 164.8359
276.925961 99.365 164.6977
278.932681 99.356 164.5647
280.953942 99.350 164.4367
282.989850 99.346 164.3135
285.040511 99.345 164.1949
287.106032 99.347 164.0806
289.186521 99.352 163.9702
291.282086 99.362 163.8634
293.392836 99.376 163.7601
295.518881 99.396 163.6599
297.660333 99.422 163.5625
299.817302 99.454 163.4675
301.989902 99.490 163.3747
304.178245 99.531 163.2836
306.382446 99.573 163.1941
308.602620 99.616 163.1058
310.838882 99.658 163.0187
313.091348 99.696 162.9329
315.360137 99.729 162.8485
317.645367 99.757 162.7658
319.947156 99.777 162.6854
322.265625 99.789 162.6074
324.600895 99.791 162.5323
326.953086 99.785 162.4604
329.322323 99.768 162.3918
331.708729 99.741 162.3267
334.112427 99.704 162.2653
336.533543 99.657 162.2079
338.972204 99.600 162.1547
341.428536 99.534 162.1056
343.902668 99.459 162.0605
346.394729 99.378 162.0190
348.904848 99.291 161.9806
351.433156 99.201 161.9447
353.979786 99.109 161.9107
356.544869 99.019 161.8779
359.128540 98.932 161.8458
361.730934 98.852 161.8136
364.352185 98.782 161.7808
366.992431 98.724 161.7469
369.651810 98.680 161.7115
372.330459 98.653 161.6741
375.028519 98.644 161.6346
377.746130 98.652 161.5928
380.483434 98.677 161.5488
383.240574 98.717 161.5027
386.017693 98.771 161.4547
388.814937 98.835 161.4047
391.632450 98.908 161.3534
394.470380 98.986 161.3010
397.328875 99.067 161.2483
400.208084 99.148 161.1959
403.108157 99.227 161.1447
406.029245 99.303 161.0958
408.971500 99.376 161.0500
411.935076 99.445 161.0082
414.920127 99.511 160.9712
417.926810 99.573 160.9398
420.955280 99.632 160.9149
424.005695 99.690 160.8969
427.078215 99.748 160.8868
430.173000 99.805 160.8850
433.290211 99.863 160.8922
436.430010 99.921 160.9089
439.592562 99.979 160.9355
442.778031 100.036 160.9720
445.986583 100.092 161.0186
449.218386 100.145 161.0750
452.473607 100.192 161.1407
455.752418 100.234 161.2151
459.054987 100.269 161.2973
462.381489 100.296 161.3861
465.732096 100.314 161.4801
469.106983 100.323 161.5780
472.506325 100.323 161.6782
475.930301 100.315 161.7789
479.379088 100.299 161.8784
482.852867 100.278 161.9748
486.351817 100.251 162.0662
489.876123 100.221 162.1507
493.425968 100.187 162.2262
497.001536 100.150 162.2907
500.603014 100.112 162.3423
504.230589 100.071 162.3788
507.884452 100.029 162.3988
511.564792 99.984 162.4005
515.271802 99.937 162.3830
519.005673 99.888 162.3453
522.766602 99.836 162.2874
526.554785 99.783 162.2093
530.370418 99.730 162.1118
534.213700 99.678 161.9958
538.084833 99.628 161.8629
541.984018 99.582 161.7153
545.911457 99.539 161.5556
549.867357 99.502 161.3873
553.851922 99.468 161.2148
557.865362 99.438 161.0430
561.907884 99.411 160.8776
565.979700 99.383 160.7249
570.081022 99.355 160.5913
574.212064 99.323 160.4832
578.373042 99.288 160.4066
582.564171 99.247 160.3665
586.785671 99.199 160.3670
591.037762 99.146 160.4105
595.320665 99.086 160.4983
599.634604 99.019 160.6300
603.979804 98.947 160.8040
608.356491 98.870 161.0181
612.764893 98.789 161.2694
617.205240 98.705 161.5553
621.677763 98.620 161.8733
626.182696 98.535 162.2213
630.720274 98.453 162.5974
635.290733 98.375 163.0001
639.894312 98.304 163.4274
644.531250 98.243 163.8766
649.201789 98.194 164.3444
653.906173 98.159 164.8257
658.644647 98.139 165.3145
663.417457 98.135 165.8029
668.224854 98.146 166.2821
673.067086 98.171 166.7424
677.944408 98.208 167.1740
682.857073 98.256 167.5673
687.805336 98.310 167.9142
692.789457 98.369 168.2083
697.809695 98.428 168.4454
702.866312 98.487 168.6236
707.959571 98.541 168.7435
713.089738 98.590 168.8077
718.257080 98.632 168.8209
723.461867 98.666 168.7890
728.704370 98.691 168.7188
733.984862 98.708 168.6172
739.303619 98.718 168.4913
744.660918 98.720 168.3477
750.057038 98.716 168.1925
755.492260 98.705 168.0314
760.966869 98.689 167.8694
766.481148 98.668 167.7112
772.035387 98.641 167.5609
777.629873 98.609 167.4217
783.264900 98.572 167.2968
788.940760 98.529 167.1887
794.657750 98.479 167.0994
800.416168 98.422 167.0309
806.216313 98.359 166.9848
812.058489 98.288 166.9622
817.943000 98.211 166.9637
823.870152 98.127 166.9890
829.840255 98.039 167.0367
835.853619 97.947 167.1044
841.910559 97.852 167.1886
848.011390 97.758 167.2849
854.156430 97.664 167.3878
860.346000 97.573 167.4914
866.580422 97.486 167.5894
872.860020 97.403 167.6755
879.185124 97.327 167.7443
885.556062 97.258 167.7908
891.973166 97.195 167.8119
898.436771 97.140 167.8060
904.947215 97.092 167.7730
911.504835 97.052 167.7148
918.109975 97.019 167.6342
924.762978 96.994 167.5349
931.464192 96.976 167.4209
938.213966 96.967 167.2961
945.012651 96.965 167.1642
951.860602 96.970 167.0277
958.758176 96.983 166.8887
965.705733 97.001 166.7485
972.703635 97.026 166.6082
979.752246 97.055 166.4685
986.851935 97.089 166.3303
994.003071 97.127 166.1943
1001.206027 97.169 166.0610
1008.461179 97.215 165.9307
1015.768904 97.265 165.8035
1023.129584 97.319 165.6795
1030.543603 97.380 165.5585
1038.011347 97.446 165.4401
1045.533205 97.519 165.3237
1053.109569 97.599 165.2085
1060.740836 97.687 165.0936
1068.427401 97.782 164.9785
1076.169666 97.883 164.8629
1083.968035 97.989 164.7464
1091.822915 98.100 164.6290
1099.734713 98.213 164.5103
1107.703844 98.326 164.3896
1115.730723 98.439 164.2660
1123.815768 98.548 164.1378
1131.959400 98.654 164.0032
1140.162045 98.755 163.8597
1148.424129 98.851 163.7048
1156.746083 98.941 163.5356
1165.128342 99.025 163.3495
1173.571343 99.105 163.1449
1182.075524 99.180 162.9203
1190.641331 99.251 162.6757
1199.269209 99.319 162.4117
1207.959608 99.384 162.1302
1216.712981 99.447 161.8334
1225.529785 99.508 161.5237
1234.410479 99.566 161.2034
1243.355526 99.622 160.8740
1252.365393 99.675 160.5363
1261.440549 99.724 160.1902
1270.581467 99.769 159.8348
1279.788624 99.808 159.4690
1289.062500 99.841 159.0917
1298.403578 99.868 158.7028
1307.812346 99.886 158.3034
1317.289293 99.896 157.8961
1326.834914 99.898 157.4847
1336.449707 99.891 157.0749
1346.134173 99.875 156.6727
1355.888816 99.851 156.2848
1365.714145 99.818 155.9169
1375.610673 99.778 155.5739
1385.578915 99.732 155.2587
1395.619391 99.679 154.9736
1405.732624 99.621 154.7192
1415.919142 99.557 154.4963
1426.179476 99.489 154.3051
1436.514160 99.417 154.1464
1446.923734 99.342 154.0216
1457.408740 99.264 153.9326
1467.969724 99.185 153.8820
1478.607238 99.106 153.8731
1489.321836 99.028 153.9092
1500.114076 98.952 153.9932
1510.984521 98.880 154.1263
1521.933737 98.813 154.3080
1532.962297 98.752 154.5353
1544.070773 98.698 154.8029
1555.259747 98.651 155.1047
1566.529800 98.610 155.4347
1577.881521 98.575 155.7880
1589.315501 98.544 156.1615
1600.832336 98.518 156.5547
1612.432627 98.495 156.9690
1624.116978 98.474 157.4073
1635.886000 98.456 157.8728
1647.740304 98.441 158.3683
1659.680509 98.430 158.8958
1671.707238 98.424 159.4558
1683.821118 98.423 160.0478
1696.022780 98.429 160.6696
1708.312860 98.443 161.3179
1720.692000 98.465 161.9880
1733.160843 98.498 162.6733
1745.720041 98.541 163.3655
1758.370248 98.594 164.0543
1771.112124 98.657 164.7289
1783.946332 98.729 165.3784
1796.873543 98.808 165.9933
1809.894429 98.893 166.5658
1823.009670 98.983 167.0903
1836.219950 99.075 167.5630
1849.525956 99.169 167.9825
1862.928384 99.263 168.3497
1876.427931 99.355 168.6685
1890.025301 99.447 168.9449
1903.721204 99.536 169.1863
1917.516352 99.623 169.3996
1931.411466 99.710 169.5900
1945.407270 99.794 169.7606
1959.504493 99.878 169.9114
1973.703870 99.961 170.0402
1988.006142 100.041 170.1427
2002.412054 100.118 170.2136
2016.922357 100.190 170.2483
2031.537808 100.256 170.2436
2046.259169 100.314 170.1990
2061.087206 100.363 170.1165
2076.022694 100.401 170.0002
2091.066410 100.430 169.8556
2106.219139 100.449 169.6874
2121.481671 100.460 169.4990
2136.854802 100.465 169.2914
2152.339333 100.464 169.0635
2167.936071 100.460 168.8129
2183.645829 100.454 168.5366
2199.469427 100.447 168.2307
2215.407689 100.441 167.8918
2231.461446 100.436 167.5159
2247.631536 100.432 167.0994
2263.918800 100.428 166.6392
2280.324089 100.425 166.1337
2296.848258 100.421 165.5829
2313.492167 100.414 164.9892
2330.256685 100.404 164.3567
2347.142685 100.388 163.6913
2364.151049 100.367 162.9997
2381.282662 100.339 162.2888
2398.538418 100.304 161.5649
2415.919216 100.261 160.8334
2433.425962 100.212 160.0991
2451.059570 100.155 159.3661
2468.820958 100.091 158.6388
2486.711052 100.020 157.9218
2504.730786 99.943 157.2195
2522.881098 99.861 156.5359
2541.162934 99.774 155.8737
2559.577248 99.684 155.2347
2578.125000 99.592 154.6197
2596.807157 99.499 154.0292
2615.624692 99.405 153.4638
2634.578586 99.313 152.9240
2653.669829 99.222 152.4108
2672.899414 99.133 151.9260
2692.268345 99.046 151.4724
2711.777632 98.962 151.0541
2731.428290 98.880 150.6763
2751.221345 98.799 150.3456
2771.157829 98.719 150.0703
2791.238781 98.639 149.8591
2811.465248 98.558 149.7213
2831.838284 98.475 149.6656
2852.358952 98.391 149.6994
2873.028321 98.303 149.8292
2893.847468 98.212 150.0601
2914.817480 98.118 150.3965
2935.939449 98.019 150.8420
2957.214476 97.917 151.3994
2978.643672 97.811 152.0704
3000.228152 97.702 152.8558
3021.969041 97.591 153.7548
3043.867475 97.480 154.7649
3065.924593 97.371 155.8815
3088.141547 97.266 157.0976
3110.519493 97.168 158.4034
3133.059600 97.079 159.7860
3155.763041 97.002 161.2290
3178.631001 96.939 162.7129
3201.664672 96.893 164.2153
3224.865254 96.864 165.7125
3248.233957 96.853 167.1797
