* Measurement data measured by REW V5.31.3
* Source: EXCL: Headset (USB-C to 3.5mm Headphone Jack Adapter), MICROPHONE (Master Volume), 0, volume: 0.250
* Format: 256k Log Swept Sine, 1 sweep at -12.0 dBFS with no timing reference
* Dated: Feb 9, 2025 6:15:37 PM
* REW Settings:
*  C-weighting compensation: Off
*  Target level: 75.0 dB
* Note: ; 
* Measurement: Satyr 2 (Geekria) L1
* Smoothing: 1/6 octave
* Frequency Step: 96 ppo
* Start Frequency: 20.0 Hz
*
* Freq(Hz) SPL(dB) Phase(degrees)
20.141602 90.977 -30.0428
20.287556 90.995 -30.2956
20.434568 91.018 -30.6311
20.582645 91.043 -31.0362
20.731796 91.066 -31.4975
20.882027 91.086 -32.0024
21.033346 91.100 -32.5401
21.185763 91.107 -33.1017
21.339284 91.106 -33.6808
21.493917 91.099 -34.2726
21.649671 91.085 -34.8740
21.806553 91.065 -35.4829
21.964572 91.042 -36.0979
22.123737 91.016 -36.7179
22.284054 90.991 -37.3417
22.445534 90.966 -37.9682
22.608183 90.945 -38.5960
22.772012 90.928 -39.2235
22.937027 90.918 -39.8491
23.103238 90.914 -40.4709
23.270654 90.919 -41.0873
23.439282 90.932 -41.6962
23.609133 90.955 -42.2961
23.780215 90.987 -42.8852
23.952536 91.030 -43.4624
24.126106 91.083 -44.0266
24.300934 91.146 -44.5779
24.477028 91.218 -45.1166
24.654399 91.299 -45.6447
24.833055 91.389 -46.1647
25.013005 91.484 -46.6806
25.194260 91.585 -47.1971
25.376828 91.690 -47.7194
25.560719 91.796 -48.2526
25.745942 91.901 -48.8014
25.932508 92.005 -49.3690
26.120426 92.104 -49.9571
26.309705 92.198 -50.5650
26.500356 92.286 -51.1903
26.692388 92.367 -51.8287
26.885812 92.440 -52.4748
27.080638 92.508 -53.1226
27.276876 92.569 -53.7666
27.474535 92.628 -54.4026
27.673627 92.685 -55.0281
27.874161 92.743 -55.6427
28.076149 92.806 -56.2480
28.279600 92.875 -56.8469
28.484526 92.954 -57.4433
28.690937 93.046 -58.0411
28.898843 93.151 -58.6433
29.108256 93.271 -59.2519
29.319186 93.407 -59.8674
29.531645 93.559 -60.4891
29.745644 93.725 -61.1156
29.961193 93.903 -61.7455
30.178304 94.090 -62.3773
30.396989 94.282 -63.0102
30.617258 94.476 -63.6443
30.839123 94.665 -64.2797
31.062596 94.846 -64.9165
31.287688 95.013 -65.5543
31.514412 95.161 -66.1921
31.742778 95.287 -66.8277
31.972800 95.387 -67.4586
32.204488 95.458 -68.0823
32.437855 95.501 -68.6972
32.672913 95.514 -69.3028
32.909674 95.499 -69.9007
33.148151 95.457 -70.4943
33.388356 95.392 -71.0884
33.630302 95.306 -71.6883
33.874001 95.202 -72.2995
34.119466 95.086 -72.9259
34.366710 94.961 -73.5701
34.615745 94.832 -74.2322
34.866585 94.702 -74.9106
35.119243 94.577 -75.6020
35.373731 94.460 -76.3021
35.630064 94.355 -77.0060
35.888254 94.266 -77.7086
36.148315 94.193 -78.4053
36.410261 94.141 -79.0922
36.674104 94.109 -79.7660
36.939860 94.099 -80.4247
37.207542 94.111 -81.0676
37.477163 94.145 -81.6953
37.748738 94.200 -82.3099
38.022281 94.276 -82.9144
38.297806 94.373 -83.5129
38.575327 94.490 -84.1095
38.854860 94.626 -84.7076
39.136419 94.779 -85.3102
39.420017 94.950 -85.9189
39.705671 95.136 -86.5346
39.993395 95.337 -87.1572
40.283203 95.552 -87.7866
40.575112 95.780 -88.4224
40.869136 96.019 -89.0643
41.165290 96.267 -89.7122
41.463591 96.524 -90.3657
41.764053 96.786 -91.0244
42.066693 97.052 -91.6872
42.371525 97.320 -92.3529
42.678567 97.587 -93.0200
42.987834 97.851 -93.6869
43.299341 98.110 -94.3521
43.613106 98.362 -95.0144
43.929145 98.603 -95.6730
44.247473 98.833 -96.3271
44.568109 99.049 -96.9765
44.891068 99.249 -97.6213
45.216367 99.434 -98.2618
45.544023 99.601 -98.8987
45.874054 99.751 -99.5329
46.206476 99.883 -100.1655
46.541307 99.997 -100.7974
46.878565 100.095 -101.4294
47.218266 100.175 -102.0623
47.560429 100.241 -102.6965
47.905072 100.291 -103.3323
48.252212 100.327 -103.9698
48.601867 100.351 -104.6089
48.954056 100.362 -105.2492
49.308798 100.364 -105.8903
49.666109 100.357 -106.5315
50.026010 100.342 -107.1723
50.388520 100.322 -107.8121
50.753656 100.298 -108.4502
51.121437 100.272 -109.0862
51.491884 100.245 -109.7191
51.865016 100.219 -110.3481
52.240851 100.195 -110.9725
52.619410 100.173 -111.5916
53.000712 100.155 -112.2053
53.384777 100.139 -112.8139
53.771625 100.127 -113.4179
54.161276 100.117 -114.0184
54.553751 100.109 -114.6161
54.949070 100.102 -115.2116
55.347254 100.095 -115.8052
55.748323 100.088 -116.3967
56.152298 100.079 -116.9859
56.559201 100.067 -117.5721
56.969052 100.053 -118.1547
57.381873 100.036 -118.7332
57.797686 100.016 -119.3070
58.216512 99.994 -119.8761
58.638373 99.969 -120.4407
59.063291 99.941 -121.0016
59.491288 99.912 -121.5595
59.922386 99.881 -122.1153
60.356608 99.848 -122.6693
60.793977 99.814 -123.2217
61.234515 99.778 -123.7723
61.678246 99.742 -124.3211
62.125192 99.705 -124.8680
62.575377 99.669 -125.4136
63.028824 99.632 -125.9584
63.485557 99.597 -126.5032
63.945599 99.563 -127.0486
64.408975 99.530 -127.5949
64.875709 99.501 -128.1422
65.345825 99.474 -128.6902
65.819348 99.450 -129.2382
66.296302 99.430 -129.7853
66.776713 99.413 -130.3302
67.260604 99.399 -130.8721
67.748002 99.389 -131.4102
68.238932 99.381 -131.9441
68.733420 99.376 -132.4737
69.231490 99.372 -132.9994
69.733170 99.371 -133.5214
70.238485 99.370 -134.0402
70.747463 99.371 -134.5561
71.260128 99.372 -135.0691
71.776508 99.374 -135.5791
72.296630 99.377 -136.0858
72.820521 99.381 -136.5886
73.348209 99.384 -137.0870
73.879720 99.389 -137.5806
74.415083 99.393 -138.0694
74.954326 99.397 -138.5534
75.497475 99.402 -139.0331
76.044561 99.406 -139.5089
76.595612 99.409 -139.9810
77.150655 99.411 -140.4499
77.709720 99.411 -140.9154
78.272837 99.409 -141.3773
78.840034 99.405 -141.8352
79.411342 99.397 -142.2885
79.986789 99.386 -142.7366
80.566406 99.371 -143.1789
81.150224 99.353 -143.6150
81.738272 99.332 -144.0446
82.330581 99.308 -144.4676
82.927182 99.283 -144.8838
83.528107 99.258 -145.2933
84.133386 99.234 -145.6960
84.743051 99.215 -146.0919
85.357134 99.203 -146.4814
85.975667 99.201 -146.8646
86.598682 99.213 -147.2424
87.226212 99.243 -147.6154
87.858289 99.292 -147.9847
88.494946 99.365 -148.3513
89.136217 99.461 -148.7161
89.782135 99.583 -149.0800
90.432733 99.729 -149.4438
91.088046 99.896 -149.8079
91.748108 100.080 -150.1727
92.412952 100.278 -150.5383
93.082615 100.484 -150.9050
93.757130 100.691 -151.2728
94.436533 100.896 -151.6418
95.120859 101.092 -152.0121
95.810144 101.276 -152.3835
96.504423 101.445 -152.7560
97.203734 101.597 -153.1296
97.908112 101.730 -153.5045
98.617595 101.847 -153.8807
99.332219 101.946 -154.2582
100.052021 102.031 -154.6372
100.777039 102.104 -155.0176
101.507311 102.166 -155.3994
102.242875 102.219 -155.7825
102.983769 102.266 -156.1669
103.730032 102.307 -156.5522
104.481702 102.344 -156.9386
105.238820 102.375 -157.3257
106.001424 102.401 -157.7135
106.769554 102.419 -158.1019
107.543250 102.429 -158.4905
108.322553 102.428 -158.8790
109.107503 102.416 -159.2667
109.898141 102.390 -159.6532
110.694508 102.350 -160.0381
111.496646 102.297 -160.4213
112.304596 102.229 -160.8027
113.118402 102.149 -161.1823
113.938104 102.058 -161.5603
114.763747 101.957 -161.9368
115.595372 101.851 -162.3121
116.433024 101.740 -162.6865
117.276746 101.626 -163.0602
118.126581 101.513 -163.4336
118.982575 101.400 -163.8067
119.844772 101.290 -164.1792
120.713217 101.182 -164.5502
121.587954 101.076 -164.9184
122.469031 100.972 -165.2825
123.356492 100.868 -165.6409
124.250384 100.764 -165.9920
125.150753 100.657 -166.3347
126.057647 100.547 -166.6678
126.971113 100.431 -166.9905
127.891198 100.310 -167.3021
128.817950 100.181 -167.6024
129.751418 100.047 -167.8916
130.691651 99.906 -168.1702
131.638696 99.760 -168.4392
132.592604 99.611 -168.6999
133.553425 99.462 -168.9539
134.521208 99.315 -169.2026
135.496004 99.173 -169.4477
136.477864 99.041 -169.6909
137.466839 98.922 -169.9339
138.462981 98.819 -170.1788
139.466340 98.735 -170.4276
140.476971 98.671 -170.6826
141.494925 98.627 -170.9456
142.520256 98.602 -171.2185
143.553016 98.595 -171.5023
144.593260 98.601 -171.7977
145.641043 98.616 -172.1048
146.696418 98.637 -172.4234
147.759441 98.659 -172.7529
148.830166 98.678 -173.0925
149.908651 98.691 -173.4412
150.994951 98.696 -173.7978
152.089123 98.693 -174.1609
153.191223 98.680 -174.5290
154.301310 98.658 -174.9004
155.419441 98.629 -175.2733
156.545674 98.594 -175.6458
157.680069 98.555 -176.0163
158.822683 98.514 -176.3832
159.973578 98.471 -176.7450
161.132813 98.429 -177.1004
162.300447 98.387 -177.4482
163.476543 98.348 -177.7875
164.661162 98.310 -178.1173
165.854364 98.274 -178.4367
167.056213 98.241 -178.7452
168.266772 98.210 -179.0421
169.486102 98.182 -179.3268
170.714268 98.158 -179.5987
171.951334 98.137 -179.8574
173.197364 98.120 179.8978
174.452424 98.107 179.6677
175.716578 98.098 179.4526
176.989893 98.092 179.2530
178.272434 98.090 179.0688
179.564270 98.089 178.8998
180.865467 98.090 178.7455
182.176092 98.090 178.6055
183.496216 98.090 178.4789
184.825905 98.088 178.3650
186.165229 98.085 178.2627
187.514259 98.079 178.1712
188.873065 98.072 178.0895
190.241717 98.064 178.0165
191.620287 98.056 177.9514
193.008847 98.048 177.8931
194.407468 98.040 177.8406
195.816225 98.034 177.7929
197.235190 98.030 177.7487
198.664438 98.026 177.7068
200.104042 98.024 177.6654
201.554078 98.022 177.6231
203.014622 98.021 177.5785
204.485750 98.018 177.5307
205.967538 98.014 177.4792
207.460064 98.008 177.4239
208.963405 98.000 177.3651
210.477640 97.989 177.3027
212.002848 97.975 177.2367
213.539108 97.960 177.1668
215.086500 97.942 177.0926
216.645105 97.922 177.0135
218.215005 97.901 176.9293
219.796281 97.879 176.8394
221.389015 97.855 176.7438
222.993292 97.829 176.6424
224.609193 97.800 176.5353
226.236804 97.769 176.4228
227.876209 97.733 176.3050
229.527494 97.692 176.1821
231.190745 97.647 176.0543
232.866048 97.597 175.9214
234.553491 97.541 175.7833
236.253163 97.480 175.6398
237.965150 97.415 175.4905
239.689544 97.347 175.3355
241.426433 97.276 175.1747
243.175909 97.203 175.0085
244.938062 97.129 174.8376
246.712984 97.055 174.6630
248.500768 96.982 174.4863
250.301507 96.910 174.3088
252.115295 96.840 174.1321
253.942226 96.774 173.9576
255.782396 96.711 173.7867
257.635901 96.652 173.6208
259.502837 96.597 173.4608
261.383301 96.548 173.3079
263.277392 96.504 173.1628
265.185209 96.467 173.0263
267.106850 96.435 172.8988
269.042417 96.408 172.7806
270.992009 96.388 172.6719
272.955729 96.372 172.5722
274.933678 96.362 172.4810
276.925961 96.355 172.3974
278.932681 96.352 172.3201
280.953942 96.353 172.2479
282.989850 96.356 172.1796
285.040511 96.362 172.1141
287.106032 96.372 172.0506
289.186521 96.386 171.9884
291.282086 96.405 171.9270
293.392836 96.429 171.8662
295.518881 96.460 171.8058
297.660333 96.496 171.7457
299.817302 96.539 171.6857
301.989902 96.587 171.6258
304.178245 96.639 171.5658
306.382446 96.693 171.5056
308.602620 96.747 171.4454
310.838882 96.800 171.3852
313.091348 96.850 171.3252
315.360137 96.895 171.2655
317.645367 96.935 171.2060
319.947156 96.967 171.1463
322.265625 96.991 171.0861
324.600895 97.006 171.0246
326.953086 97.011 170.9615
329.322323 97.006 170.8962
331.708729 96.991 170.8284
334.112427 96.965 170.7580
336.533543 96.929 170.6848
338.972204 96.883 170.6092
341.428536 96.827 170.5316
343.902668 96.762 170.4527
346.394729 96.690 170.3732
348.904848 96.611 170.2940
351.433156 96.528 170.2158
353.979786 96.443 170.1395
356.544869 96.359 170.0656
359.128540 96.278 169.9948
361.730934 96.202 169.9275
364.352185 96.136 169.8641
366.992431 96.082 169.8048
369.651810 96.042 169.7495
372.330459 96.019 169.6979
375.028519 96.012 169.6495
377.746130 96.024 169.6040
380.483434 96.053 169.5607
383.240574 96.099 169.5192
386.017693 96.158 169.4788
388.814937 96.229 169.4388
391.632450 96.309 169.3986
394.470380 96.395 169.3574
397.328875 96.484 169.3145
400.208084 96.574 169.2693
403.108157 96.663 169.2214
406.029245 96.749 169.1707
408.971500 96.832 169.1175
411.935076 96.912 169.0618
414.920127 96.988 169.0042
417.926810 97.060 168.9453
420.955280 97.130 168.8857
424.005695 97.197 168.8264
427.078215 97.263 168.7682
430.173000 97.328 168.7117
433.290211 97.393 168.6577
436.430010 97.457 168.6063
439.592562 97.519 168.5578
442.778031 97.579 168.5120
445.986583 97.635 168.4689
449.218386 97.686 168.4291
452.473607 97.730 168.3935
455.752418 97.765 168.3641
459.054987 97.790 168.3438
462.381489 97.804 168.3361
465.732096 97.806 168.3452
469.106983 97.796 168.3754
472.506325 97.775 168.4307
475.930301 97.744 168.5141
479.379088 97.704 168.6277
482.852867 97.657 168.7721
486.351817 97.606 168.9459
489.876123 97.551 169.1462
493.425968 97.496 169.3680
497.001536 97.440 169.6053
500.603014 97.386 169.8511
504.230589 97.333 170.0982
507.884452 97.282 170.3396
511.564792 97.233 170.5694
515.271802 97.185 170.7827
519.005673 97.137 170.9764
522.766602 97.091 171.1484
526.554785 97.047 171.2982
530.370418 97.006 171.4258
534.213700 96.969 171.5327
538.084833 96.937 171.6204
541.984018 96.912 171.6909
545.911457 96.895 171.7468
549.867357 96.886 171.7902
553.851922 96.885 171.8239
557.865362 96.892 171.8499
561.907884 96.904 171.8705
565.979700 96.921 171.8875
570.081022 96.940 171.9022
574.212064 96.959 171.9162
578.373042 96.976 171.9308
582.564171 96.990 171.9472
586.785671 96.999 171.9664
591.037762 97.002 171.9893
595.320665 96.999 172.0165
599.634604 96.988 172.0485
603.979804 96.969 172.0854
608.356491 96.944 172.1273
612.764893 96.911 172.1738
617.205240 96.874 172.2248
621.677763 96.831 172.2802
626.182696 96.786 172.3395
630.720274 96.740 172.4029
635.290733 96.694 172.4699
639.894312 96.651 172.5402
644.531250 96.613 172.6133
649.201789 96.581 172.6891
653.906173 96.556 172.7668
658.644647 96.539 172.8463
663.417457 96.531 172.9272
668.224854 96.529 173.0089
673.067086 96.535 173.0911
677.944408 96.545 173.1729
682.857073 96.559 173.2537
687.805336 96.575 173.3322
692.789457 96.591 173.4073
697.809695 96.606 173.4777
702.866312 96.618 173.5422
707.959571 96.628 173.5997
713.089738 96.633 173.6493
718.257080 96.634 173.6905
723.461867 96.631 173.7232
728.704370 96.622 173.7479
733.984862 96.610 173.7654
739.303619 96.593 173.7771
744.660918 96.574 173.7844
750.057038 96.551 173.7889
755.492260 96.526 173.7921
760.966869 96.499 173.7957
766.481148 96.470 173.8013
772.035387 96.439 173.8106
777.629873 96.405 173.8253
783.264900 96.368 173.8466
788.940760 96.328 173.8755
794.657750 96.283 173.9128
800.416168 96.233 173.9582
806.216313 96.178 174.0115
812.058489 96.118 174.0722
817.943000 96.051 174.1393
823.870152 95.979 174.2120
829.840255 95.901 174.2897
835.853619 95.819 174.3717
841.910559 95.734 174.4579
848.011390 95.645 174.5484
854.156430 95.556 174.6429
860.346000 95.467 174.7413
866.580422 95.379 174.8424
872.860020 95.295 174.9447
879.185124 95.216 175.0457
885.556062 95.142 175.1428
891.973166 95.076 175.2325
898.436771 95.019 175.3115
904.947215 94.971 175.3763
911.504835 94.934 175.4239
918.109975 94.907 175.4517
924.762978 94.890 175.4578
931.464192 94.884 175.4416
938.213966 94.887 175.4034
945.012651 94.899 175.3445
951.860602 94.920 175.2673
958.758176 94.947 175.1753
965.705733 94.980 175.0721
972.703635 95.018 174.9619
979.752246 95.060 174.8480
986.851935 95.106 174.7328
994.003071 95.156 174.6177
1001.206027 95.209 174.5028
1008.461179 95.266 174.3873
1015.768904 95.327 174.2703
1023.129584 95.392 174.1508
1030.543603 95.462 174.0282
1038.011347 95.538 173.9022
1045.533205 95.619 173.7733
1053.109569 95.706 173.6425
1060.740836 95.799 173.5114
1068.427401 95.897 173.3824
1076.169666 96.001 173.2580
1083.968035 96.109 173.1407
1091.822915 96.220 173.0322
1099.734713 96.333 172.9333
1107.703844 96.447 172.8434
1115.730723 96.561 172.7607
1123.815768 96.673 172.6817
1131.959400 96.783 172.6022
1140.162045 96.888 172.5172
1148.424129 96.988 172.4221
1156.746083 97.084 172.3127
1165.128342 97.174 172.1860
1173.571343 97.260 172.0399
1182.075524 97.341 171.8733
1190.641331 97.418 171.6859
1199.269209 97.493 171.4785
1207.959608 97.564 171.2520
1216.712981 97.633 171.0082
1225.529785 97.700 170.7492
1234.410479 97.763 170.4778
1243.355526 97.823 170.1978
1252.365393 97.878 169.9133
1261.440549 97.928 169.6284
1270.581467 97.973 169.3463
1279.788624 98.012 169.0696
1289.062500 98.045 168.8002
1298.403578 98.072 168.5397
1307.812346 98.092 168.2893
1317.289293 98.106 168.0504
1326.834914 98.115 167.8246
1336.449707 98.118 167.6139
1346.134173 98.116 167.4209
1355.888816 98.110 167.2478
1365.714145 98.100 167.0964
1375.610673 98.086 166.9673
1385.578915 98.070 166.8599
1395.619391 98.052 166.7721
1405.732624 98.032 166.7017
1415.919142 98.010 166.6465
1426.179476 97.986 166.6049
1436.514160 97.961 166.5766
1446.923734 97.936 166.5620
1457.408740 97.911 166.5618
1467.969724 97.887 166.5762
1478.607238 97.865 166.6051
1489.321836 97.846 166.6473
1500.114076 97.831 166.7013
1510.984521 97.820 166.7654
1521.933737 97.813 166.8388
1532.962297 97.809 166.9222
1544.070773 97.808 167.0172
1555.259747 97.810 167.1260
1566.529800 97.814 167.2508
1577.881521 97.820 167.3931
1589.315501 97.828 167.5540
1600.832336 97.837 167.7341
1612.432627 97.848 167.9335
1624.116978 97.860 168.1522
1635.886000 97.873 168.3892
1647.740304 97.888 168.6429
1659.680509 97.906 168.9111
1671.707238 97.925 169.1924
1683.821118 97.947 169.4869
1696.022780 97.972 169.7953
1708.312860 97.999 170.1194
1720.692000 98.031 170.4600
1733.160843 98.068 170.8163
1745.720041 98.109 171.1854
1758.370248 98.157 171.5629
1771.112124 98.209 171.9434
1783.946332 98.267 172.3212
1796.873543 98.329 172.6917
1809.894429 98.394 173.0513
1823.009670 98.462 173.3975
1836.219950 98.531 173.7288
1849.525956 98.602 174.0449
1862.928384 98.674 174.3465
1876.427931 98.747 174.6347
1890.025301 98.822 174.9097
1903.721204 98.899 175.1699
1917.516352 98.979 175.4119
1931.411466 99.060 175.6317
1945.407270 99.143 175.8254
1959.504493 99.226 175.9906
1973.703870 99.308 176.1249
1988.006142 99.388 176.2269
2002.412054 99.464 176.2954
2016.922357 99.535 176.3302
2031.537808 99.599 176.3316
2046.259169 99.657 176.3004
2061.087206 99.706 176.2376
2076.022694 99.746 176.1442
2091.066410 99.777 176.0215
2106.219139 99.801 175.8712
2121.481671 99.816 175.6948
2136.854802 99.825 175.4936
2152.339333 99.827 175.2685
2167.936071 99.826 175.0202
2183.645829 99.821 174.7494
2199.469427 99.814 174.4562
2215.407689 99.807 174.1401
2231.461446 99.800 173.7996
2247.631536 99.794 173.4333
2263.918800 99.788 173.0400
2280.324089 99.783 172.6193
2296.848258 99.778 172.1719
2313.492167 99.772 171.6996
2330.256685 99.764 171.2053
2347.142685 99.754 170.6926
2364.151049 99.741 170.1660
2381.282662 99.724 169.6299
2398.538418 99.704 169.0889
2415.919216 99.680 168.5470
2433.425962 99.653 168.0073
2451.059570 99.622 167.4728
2468.820958 99.589 166.9461
2486.711052 99.554 166.4293
2504.730786 99.518 165.9235
2522.881098 99.482 165.4292
2541.162934 99.447 164.9455
2559.577248 99.414 164.4707
2578.125000 99.385 164.0022
2596.807157 99.361 163.5363
2615.624692 99.342 163.0689
2634.578586 99.329 162.5963
2653.669829 99.321 162.1158
2672.899414 99.320 161.6256
2692.268345 99.323 161.1257
2711.777632 99.331 160.6178
2731.428290 99.342 160.1054
2751.221345 99.355 159.5943
2771.157829 99.367 159.0920
2791.238781 99.378 158.6066
2811.465248 99.386 158.1467
2831.838284 99.390 157.7202
2852.358952 99.389 157.3336
2873.028321 99.381 156.9925
2893.847468 99.365 156.7010
2914.817480 99.341 156.4623
2935.939449 99.307 156.2795
2957.214476 99.263 156.1558
2978.643672 99.208 156.0946
3000.228152 99.141 156.1000
3021.969041 99.064 156.1768
3043.867475 98.976 156.3299
3065.924593 98.879 156.5647
3088.141547 98.773 156.8858
3110.519493 98.662 157.2968
3133.059600 98.547 157.7997
3155.763041 98.431 158.3942
3178.631001 98.317 159.0772
3201.664672 98.208 159.8431
3224.865254 98.106 160.6828
3248.233957 98.015 161.5843
3271.771999 97.937 162.5327
3295.480608 97.873 163.5110
3319.361019 97.825 164.5013
3343.414477 97.794 165.4853
3367.642236 97.779 166.4453
3392.045560 97.781 167.3653
3416.625721 97.798 168.2311
3441.383999 97.830 169.0309
3466.321686 97.875 169.7554
