* Measurement data measured by REW V5.31.3
* Source: EXCL: Headset (USB-C to 3.5mm Headphone Jack Adapter), MICROPHONE (Master Volume), 0, volume: 0.250
* Format: 256k Log Swept Sine, 1 sweep at -12.0 dBFS with no timing reference
* Dated: Feb 9, 2025 6:20:51 PM
* REW Settings:
*  C-weighting compensation: Off
*  Target level: 75.0 dB
* Note: ; 
* Measurement: Satyr 2 (Geekria) L8
* Smoothing: 1/6 octave
* Frequency Step: 96 ppo
* Start Frequency: 20.0 Hz
*
* Freq(Hz) SPL(dB) Phase(degrees)
20.141602 91.249 -30.6068
20.287556 91.278 -30.8290
20.434568 91.316 -31.1248
20.582645 91.358 -31.4843
20.731796 91.401 -31.8976
20.882027 91.440 -32.3551
21.033346 91.475 -32.8487
21.185763 91.502 -33.3718
21.339284 91.519 -33.9193
21.493917 91.526 -34.4870
21.649671 91.524 -35.0718
21.806553 91.512 -35.6710
21.964572 91.491 -36.2818
22.123737 91.463 -36.9016
22.284054 91.430 -37.5271
22.445534 91.393 -38.1551
22.608183 91.355 -38.7820
22.772012 91.318 -39.4043
22.937027 91.284 -40.0186
23.103238 91.256 -40.6224
23.270654 91.236 -41.2137
23.439282 91.227 -41.7919
23.609133 91.230 -42.3576
23.780215 91.248 -42.9126
23.952536 91.280 -43.4599
24.126106 91.329 -44.0032
24.300934 91.393 -44.5464
24.477028 91.471 -45.0937
24.654399 91.561 -45.6483
24.833055 91.661 -46.2129
25.013005 91.769 -46.7888
25.194260 91.882 -47.3762
25.376828 91.997 -47.9741
25.560719 92.112 -48.5807
25.745942 92.225 -49.1935
25.932508 92.334 -49.8095
26.120426 92.438 -50.4256
26.309705 92.537 -51.0388
26.500356 92.629 -51.6465
26.692388 92.715 -52.2463
26.885812 92.795 -52.8361
27.080638 92.870 -53.4145
27.276876 92.940 -53.9806
27.474535 93.007 -54.5341
27.673627 93.071 -55.0756
27.874161 93.135 -55.6067
28.076149 93.202 -56.1297
28.279600 93.272 -56.6481
28.484526 93.350 -57.1659
28.690937 93.437 -57.6875
28.898843 93.535 -58.2174
29.108256 93.646 -58.7590
29.319186 93.772 -59.3152
29.531645 93.911 -59.8875
29.745644 94.065 -60.4760
29.961193 94.230 -61.0798
30.178304 94.404 -61.6973
30.396989 94.585 -62.3264
30.617258 94.768 -62.9654
30.839123 94.949 -63.6128
31.062596 95.124 -64.2675
31.287688 95.287 -64.9288
31.514412 95.435 -65.5963
31.742778 95.563 -66.2689
31.972800 95.668 -66.9452
32.204488 95.747 -67.6233
32.437855 95.797 -68.3004
32.672913 95.818 -68.9741
32.909674 95.810 -69.6418
33.148151 95.775 -70.3020
33.388356 95.713 -70.9536
33.630302 95.629 -71.5970
33.874001 95.525 -72.2326
34.119466 95.405 -72.8617
34.366710 95.275 -73.4850
34.615745 95.138 -74.1032
34.866585 95.001 -74.7162
35.119243 94.867 -75.3241
35.373731 94.741 -75.9266
35.630064 94.629 -76.5242
35.888254 94.533 -77.1178
36.148315 94.458 -77.7091
36.410261 94.405 -78.2999
36.674104 94.376 -78.8923
36.939860 94.370 -79.4875
37.207542 94.389 -80.0865
37.477163 94.429 -80.6891
37.748738 94.491 -81.2950
38.022281 94.573 -81.9035
38.297806 94.673 -82.5140
38.575327 94.791 -83.1265
38.854860 94.925 -83.7410
39.136419 95.074 -84.3581
39.420017 95.239 -84.9780
39.705671 95.418 -85.6012
39.993395 95.611 -86.2280
40.283203 95.818 -86.8587
40.575112 96.038 -87.4937
40.869136 96.269 -88.1339
41.165290 96.511 -88.7801
41.463591 96.762 -89.4334
41.764053 97.020 -90.0943
42.066693 97.282 -90.7626
42.371525 97.546 -91.4375
42.678567 97.811 -92.1173
42.987834 98.072 -92.7999
43.299341 98.329 -93.4831
43.613106 98.579 -94.1646
43.929145 98.820 -94.8421
44.247473 99.050 -95.5138
44.568109 99.268 -96.1777
44.891068 99.472 -96.8323
45.216367 99.661 -97.4760
45.544023 99.833 -98.1084
45.874054 99.989 -98.7297
46.206476 100.127 -99.3412
46.541307 100.248 -99.9452
46.878565 100.352 -100.5443
47.218266 100.439 -101.1414
47.560429 100.510 -101.7384
47.905072 100.564 -102.3363
48.252212 100.604 -102.9351
48.601867 100.629 -103.5339
48.954056 100.643 -104.1315
49.308798 100.645 -104.7270
49.666109 100.638 -105.3198
50.026010 100.624 -105.9098
50.388520 100.605 -106.4979
50.753656 100.582 -107.0846
51.121437 100.557 -107.6710
51.491884 100.533 -108.2580
51.865016 100.509 -108.8461
52.240851 100.488 -109.4362
52.619410 100.470 -110.0285
53.000712 100.457 -110.6234
53.384777 100.447 -111.2206
53.771625 100.440 -111.8198
54.161276 100.436 -112.4201
54.553751 100.434 -113.0205
54.949070 100.433 -113.6200
55.347254 100.432 -114.2174
55.748323 100.430 -114.8115
56.152298 100.426 -115.4013
56.559201 100.420 -115.9860
56.969052 100.411 -116.5649
57.381873 100.399 -117.1378
57.797686 100.384 -117.7046
58.216512 100.365 -118.2659
58.638373 100.344 -118.8227
59.063291 100.320 -119.3761
59.491288 100.293 -119.9274
59.922386 100.265 -120.4778
60.356608 100.234 -121.0284
60.793977 100.203 -121.5797
61.234515 100.171 -122.1319
61.678246 100.138 -122.6848
62.125192 100.105 -123.2379
62.575377 100.072 -123.7906
63.028824 100.040 -124.3424
63.485557 100.008 -124.8933
63.945599 99.978 -125.4434
64.408975 99.950 -125.9928
64.875709 99.924 -126.5421
65.345825 99.900 -127.0916
65.819348 99.879 -127.6412
66.296302 99.861 -128.1906
66.776713 99.846 -128.7390
67.260604 99.834 -129.2856
67.748002 99.825 -129.8297
68.238932 99.818 -130.3705
68.733420 99.814 -130.9076
69.231490 99.811 -131.4408
69.733170 99.810 -131.9697
70.238485 99.809 -132.4940
70.747463 99.810 -133.0134
71.260128 99.812 -133.5280
71.776508 99.814 -134.0380
72.296630 99.817 -134.5437
72.820521 99.820 -135.0458
73.348209 99.824 -135.5447
73.879720 99.828 -136.0403
74.415083 99.833 -136.5325
74.954326 99.838 -137.0202
75.497475 99.842 -137.5025
76.044561 99.846 -137.9780
76.595612 99.850 -138.4455
77.150655 99.851 -138.9045
77.709720 99.851 -139.3546
78.272837 99.849 -139.7962
78.840034 99.844 -140.2296
79.411342 99.837 -140.6554
79.986789 99.826 -141.0740
80.566406 99.812 -141.4855
81.150224 99.795 -141.8901
81.738272 99.775 -142.2879
82.330581 99.754 -142.6793
82.927182 99.731 -143.0644
83.528107 99.710 -143.4437
84.133386 99.691 -143.8177
84.743051 99.677 -144.1870
85.357134 99.670 -144.5523
85.975667 99.675 -144.9146
86.598682 99.693 -145.2748
87.226212 99.729 -145.6340
87.858289 99.785 -145.9932
88.494946 99.865 -146.3536
89.136217 99.969 -146.7162
89.782135 100.098 -147.0820
90.432733 100.251 -147.4516
91.088046 100.425 -147.8253
91.748108 100.616 -148.2030
92.412952 100.820 -148.5840
93.082615 101.031 -148.9675
93.757130 101.244 -149.3526
94.436533 101.453 -149.7383
95.120859 101.654 -150.1241
95.810144 101.842 -150.5100
96.504423 102.015 -150.8964
97.203734 102.171 -151.2841
97.908112 102.310 -151.6737
98.617595 102.430 -152.0661
99.332219 102.534 -152.4617
100.052021 102.623 -152.8607
100.777039 102.699 -153.2634
101.507311 102.763 -153.6698
102.242875 102.819 -154.0799
102.983769 102.868 -154.4934
103.730032 102.912 -154.9101
104.481702 102.949 -155.3293
105.238820 102.982 -155.7504
106.001424 103.008 -156.1722
106.769554 103.028 -156.5936
107.543250 103.039 -157.0136
108.322553 103.039 -157.4315
109.107503 103.028 -157.8468
109.898141 103.003 -158.2597
110.694508 102.965 -158.6704
111.496646 102.913 -159.0795
112.304596 102.847 -159.4875
113.118402 102.769 -159.8948
113.938104 102.680 -160.3016
114.763747 102.582 -160.7077
115.595372 102.477 -161.1129
116.433024 102.368 -161.5165
117.276746 102.256 -161.9181
118.126581 102.144 -162.3169
118.982575 102.032 -162.7123
119.844772 101.922 -163.1034
120.713217 101.815 -163.4894
121.587954 101.709 -163.8698
122.469031 101.605 -164.2441
123.356492 101.501 -164.6118
124.250384 101.396 -164.9726
125.150753 101.290 -165.3262
126.057647 101.180 -165.6721
126.971113 101.065 -166.0097
127.891198 100.945 -166.3386
128.817950 100.819 -166.6583
129.751418 100.687 -166.9683
130.691651 100.549 -167.2684
131.638696 100.407 -167.5587
132.592604 100.262 -167.8399
133.553425 100.116 -168.1130
134.521208 99.973 -168.3798
135.496004 99.835 -168.6428
136.477864 99.707 -168.9045
137.466839 99.592 -169.1678
138.462981 99.493 -169.4357
139.466340 99.413 -169.7107
140.476971 99.353 -169.9952
141.494925 99.312 -170.2914
142.520256 99.291 -170.6007
143.553016 99.287 -170.9244
144.593260 99.296 -171.2631
145.641043 99.313 -171.6170
146.696418 99.336 -171.9857
147.759441 99.359 -172.3686
148.830166 99.379 -172.7645
149.908651 99.392 -173.1719
150.994951 99.396 -173.5890
152.089123 99.391 -174.0136
153.191223 99.377 -174.4433
154.301310 99.353 -174.8757
155.419441 99.321 -175.3083
156.545674 99.282 -175.7391
157.680069 99.239 -176.1661
158.822683 99.192 -176.5875
159.973578 99.144 -177.0019
161.132813 99.096 -177.4080
162.300447 99.048 -177.8048
163.476543 99.001 -178.1911
164.661162 98.955 -178.5658
165.854364 98.911 -178.9279
167.056213 98.869 -179.2767
168.266772 98.829 -179.6115
169.486102 98.792 -179.9317
170.714268 98.758 179.7632
171.951334 98.727 179.4737
173.197364 98.700 179.2001
174.452424 98.677 178.9430
175.716578 98.658 178.7028
176.989893 98.642 178.4797
178.272434 98.629 178.2744
179.564270 98.618 178.0868
180.865467 98.607 177.9172
182.176092 98.597 177.7656
183.496216 98.586 177.6315
184.825905 98.574 177.5144
186.165229 98.559 177.4136
187.514259 98.543 177.3283
188.873065 98.525 177.2575
190.241717 98.507 177.2002
191.620287 98.487 177.1556
193.008847 98.469 177.1227
194.407468 98.451 177.1010
195.816225 98.435 177.0895
197.235190 98.420 177.0872
198.664438 98.407 177.0928
200.104042 98.397 177.1049
201.554078 98.387 177.1217
203.014622 98.379 177.1412
204.485750 98.371 177.1613
205.967538 98.363 177.1800
207.460064 98.354 177.1954
208.963405 98.345 177.2059
210.477640 98.334 177.2104
212.002848 98.322 177.2079
213.539108 98.309 177.1974
215.086500 98.294 177.1783
216.645105 98.279 177.1497
218.215005 98.262 177.1114
219.796281 98.244 177.0629
221.389015 98.225 177.0041
222.993292 98.202 176.9352
224.609193 98.177 176.8569
226.236804 98.147 176.7703
227.876209 98.112 176.6768
229.527494 98.071 176.5782
231.190745 98.024 176.4764
232.866048 97.971 176.3734
234.553491 97.911 176.2712
236.253163 97.847 176.1713
237.965150 97.777 176.0753
239.689544 97.704 175.9842
241.426433 97.629 175.8986
243.175909 97.553 175.8187
244.938062 97.477 175.7443
246.712984 97.402 175.6748
248.500768 97.329 175.6094
250.301507 97.260 175.5469
252.115295 97.194 175.4858
253.942226 97.133 175.4248
255.782396 97.077 175.3622
257.635901 97.027 175.2965
259.502837 96.983 175.2267
261.383301 96.947 175.1517
263.277392 96.917 175.0709
265.185209 96.894 174.9836
267.106850 96.879 174.8893
269.042417 96.870 174.7875
270.992009 96.868 174.6777
272.955729 96.870 174.5598
274.933678 96.878 174.4334
276.925961 96.889 174.2991
278.932681 96.902 174.1577
280.953942 96.917 174.0103
282.989850 96.934 173.8586
285.040511 96.952 173.7039
287.106032 96.972 173.5474
289.186521 96.994 173.3904
291.282086 97.019 173.2334
293.392836 97.048 173.0771
295.518881 97.081 172.9220
297.660333 97.118 172.7688
299.817302 97.160 172.6179
301.989902 97.206 172.4698
304.178245 97.254 172.3252
306.382446 97.303 172.1843
308.602620 97.351 172.0477
310.838882 97.397 171.9157
313.091348 97.439 171.7890
315.360137 97.476 171.6679
317.645367 97.505 171.5531
319.947156 97.527 171.4450
322.265625 97.539 171.3441
324.600895 97.542 171.2507
326.953086 97.536 171.1653
329.322323 97.518 171.0877
331.708729 97.490 171.0181
334.112427 97.452 170.9561
336.533543 97.403 170.9013
338.972204 97.344 170.8531
341.428536 97.276 170.8112
343.902668 97.200 170.7749
346.394729 97.118 170.7440
348.904848 97.030 170.7180
351.433156 96.939 170.6965
353.979786 96.847 170.6789
356.544869 96.757 170.6647
359.128540 96.672 170.6531
361.730934 96.594 170.6439
364.352185 96.526 170.6365
366.992431 96.471 170.6305
369.651810 96.432 170.6256
372.330459 96.410 170.6212
375.028519 96.406 170.6169
377.746130 96.422 170.6120
380.483434 96.455 170.6058
383.240574 96.505 170.5975
386.017693 96.569 170.5866
388.814937 96.645 170.5724
391.632450 96.730 170.5545
394.470380 96.820 170.5328
397.328875 96.913 170.5073
400.208084 97.007 170.4784
403.108157 97.100 170.4464
406.029245 97.191 170.4119
408.971500 97.278 170.3751
411.935076 97.361 170.3367
414.920127 97.441 170.2969
417.926810 97.517 170.2561
420.955280 97.592 170.2146
424.005695 97.664 170.1723
427.078215 97.735 170.1290
430.173000 97.806 170.0844
433.290211 97.877 170.0383
436.430010 97.947 169.9905
439.592562 98.016 169.9412
442.778031 98.082 169.8906
445.986583 98.145 169.8397
449.218386 98.201 169.7899
452.473607 98.251 169.7429
455.752418 98.292 169.7014
459.054987 98.322 169.6684
462.381489 98.340 169.6476
465.732096 98.347 169.6426
469.106983 98.342 169.6572
472.506325 98.326 169.6945
475.930301 98.299 169.7570
479.379088 98.264 169.8457
482.852867 98.222 169.9604
486.351817 98.175 170.0991
489.876123 98.124 170.2584
493.425968 98.072 170.4336
497.001536 98.019 170.6192
500.603014 97.967 170.8094
504.230589 97.914 170.9984
507.884452 97.863 171.1813
511.564792 97.811 171.3539
515.271802 97.760 171.5132
519.005673 97.708 171.6572
522.766602 97.657 171.7852
526.554785 97.607 171.8972
530.370418 97.558 171.9942
534.213700 97.513 172.0776
538.084833 97.473 172.1494
541.984018 97.440 172.2115
545.911457 97.414 172.2663
549.867357 97.396 172.3158
553.851922 97.386 172.3619
557.865362 97.384 172.4062
561.907884 97.389 172.4503
565.979700 97.398 172.4953
570.081022 97.410 172.5421
574.212064 97.423 172.5916
578.373042 97.435 172.6448
582.564171 97.443 172.7023
586.785671 97.448 172.7647
591.037762 97.447 172.8325
595.320665 97.439 172.9060
599.634604 97.425 172.9854
603.979804 97.404 173.0707
608.356491 97.376 173.1616
612.764893 97.343 173.2576
617.205240 97.304 173.3583
621.677763 97.262 173.4632
626.182696 97.217 173.5716
630.720274 97.171 173.6829
635.290733 97.126 173.7965
639.894312 97.085 173.9117
644.531250 97.048 174.0280
649.201789 97.018 174.1448
653.906173 96.996 174.2617
658.644647 96.982 174.3782
663.417457 96.976 174.4941
668.224854 96.977 174.6089
673.067086 96.986 174.7219
677.944408 96.999 174.8325
682.857073 97.016 174.9399
687.805336 97.036 175.0432
692.789457 97.055 175.1414
697.809695 97.074 175.2335
702.866312 97.090 175.3187
707.959571 97.102 175.3961
713.089738 97.111 175.4650
718.257080 97.115 175.5254
723.461867 97.114 175.5774
728.704370 97.108 175.6219
733.984862 97.098 175.6601
739.303619 97.084 175.6939
744.660918 97.067 175.7252
750.057038 97.046 175.7560
755.492260 97.024 175.7884
760.966869 97.000 175.8242
766.481148 96.975 175.8648
772.035387 96.948 175.9115
777.629873 96.920 175.9648
783.264900 96.889 176.0248
788.940760 96.856 176.0907
794.657750 96.819 176.1613
800.416168 96.779 176.2349
806.216313 96.735 176.3090
812.058489 96.685 176.3811
817.943000 96.631 176.4487
823.870152 96.571 176.5096
829.840255 96.507 176.5620
835.853619 96.438 176.6052
841.910559 96.365 176.6392
848.011390 96.289 176.6646
854.156430 96.210 176.6830
860.346000 96.129 176.6960
866.580422 96.049 176.7050
872.860020 95.969 176.7112
879.185124 95.892 176.7156
885.556062 95.818 176.7186
891.973166 95.750 176.7207
898.436771 95.687 176.7217
904.947215 95.631 176.7214
911.504835 95.584 176.7194
918.109975 95.546 176.7148
924.762978 95.519 176.7068
931.464192 95.501 176.6944
938.213966 95.495 176.6765
945.012651 95.499 176.6517
951.860602 95.513 176.6189
958.758176 95.536 176.5771
965.705733 95.568 176.5259
972.703635 95.607 176.4651
979.752246 95.652 176.3949
986.851935 95.702 176.3157
994.003071 95.756 176.2280
1001.206027 95.815 176.1323
1008.461179 95.877 176.0292
1015.768904 95.943 175.9189
1023.129584 96.014 175.8016
1030.543603 96.089 175.6778
1038.011347 96.169 175.5476
1045.533205 96.255 175.4114
1053.109569 96.347 175.2699
1060.740836 96.445 175.1242
1068.427401 96.548 174.9760
1076.169666 96.655 174.8276
1083.968035 96.766 174.6818
1091.822915 96.879 174.5414
1099.734713 96.994 174.4086
1107.703844 97.108 174.2846
1115.730723 97.222 174.1694
1123.815768 97.332 174.0613
1131.959400 97.440 173.9574
1140.162045 97.543 173.8536
1148.424129 97.642 173.7451
1156.746083 97.736 173.6273
1165.128342 97.826 173.4956
1173.571343 97.913 173.3456
1182.075524 97.996 173.1739
1190.641331 98.076 172.9777
1199.269209 98.154 172.7557
1207.959608 98.229 172.5076
1216.712981 98.301 172.2344
1225.529785 98.370 171.9384
1234.410479 98.436 171.6231
1243.355526 98.496 171.2936
1252.365393 98.551 170.9556
1261.440549 98.599 170.6149
1270.581467 98.640 170.2769
1279.788624 98.674 169.9458
1289.062500 98.700 169.6255
1298.403578 98.719 169.3191
1307.812346 98.730 169.0295
1317.289293 98.735 168.7593
1326.834914 98.733 168.5109
1336.449707 98.726 168.2866
1346.134173 98.714 168.0880
1355.888816 98.697 167.9167
1365.714145 98.677 167.7732
1375.610673 98.655 167.6570
1385.578915 98.630 167.5667
1395.619391 98.602 167.5002
1405.732624 98.574 167.4555
1415.919142 98.543 167.4312
1426.179476 98.511 167.4268
1436.514160 98.479 167.4424
1446.923734 98.446 167.4784
1457.408740 98.415 167.5341
1467.969724 98.386 167.6085
1478.607238 98.361 167.6990
1489.321836 98.340 167.8026
1500.114076 98.323 167.9157
1510.984521 98.311 168.0359
1521.933737 98.304 168.1622
1532.962297 98.300 168.2951
1544.070773 98.300 168.4366
1555.259747 98.303 168.5892
1566.529800 98.307 168.7560
1577.881521 98.314 168.9400
1589.315501 98.323 169.1438
1600.832336 98.333 169.3695
1612.432627 98.344 169.6185
1624.116978 98.358 169.8907
1635.886000 98.374 170.1840
1647.740304 98.394 170.4946
1659.680509 98.416 170.8176
1671.707238 98.443 171.1485
1683.821118 98.472 171.4837
1696.022780 98.505 171.8214
1708.312860 98.542 172.1615
1720.692000 98.582 172.5047
1733.160843 98.625 172.8519
1745.720041 98.672 173.2040
1758.370248 98.723 173.5613
1771.112124 98.777 173.9232
1783.946332 98.836 174.2889
1796.873543 98.897 174.6565
1809.894429 98.962 175.0231
1823.009670 99.030 175.3844
1836.219950 99.101 175.7355
1849.525956 99.175 176.0724
1862.928384 99.250 176.3921
1876.427931 99.327 176.6927
1890.025301 99.406 176.9725
1903.721204 99.487 177.2296
1917.516352 99.569 177.4621
1931.411466 99.652 177.6689
1945.407270 99.735 177.8501
1959.504493 99.818 178.0060
1973.703870 99.898 178.1369
1988.006142 99.976 178.2424
2002.412054 100.050 178.3223
2016.922357 100.119 178.3773
2031.537808 100.182 178.4080
2046.259169 100.238 178.4149
2061.087206 100.288 178.3979
2076.022694 100.330 178.3558
2091.066410 100.365 178.2869
2106.219139 100.394 178.1887
2121.481671 100.418 178.0587
2136.854802 100.436 177.8945
2152.339333 100.450 177.6943
2167.936071 100.460 177.4572
2183.645829 100.468 177.1830
2199.469427 100.473 176.8727
2215.407689 100.477 176.5280
2231.461446 100.479 176.1512
2247.631536 100.481 175.7446
2263.918800 100.482 175.3101
2280.324089 100.483 174.8492
2296.848258 100.483 174.3632
2313.492167 100.482 173.8535
2330.256685 100.479 173.3221
2347.142685 100.473 172.7718
2364.151049 100.464 172.2058
2381.282662 100.451 171.6279
2398.538418 100.434 171.0420
2415.919216 100.413 170.4518
2433.425962 100.388 169.8611
2451.059570 100.360 169.2732
2468.820958 100.328 168.6909
2486.711052 100.293 168.1166
2504.730786 100.256 167.5518
2522.881098 100.219 166.9971
2541.162934 100.182 166.4524
2559.577248 100.146 165.9167
2578.125000 100.112 165.3882
2596.807157 100.082 164.8640
2615.624692 100.056 164.3413
2634.578586 100.034 163.8171
2653.669829 100.017 163.2894
2672.899414 100.006 162.7578
2692.268345 99.998 162.2234
2711.777632 99.994 161.6895
2731.428290 99.992 161.1610
2751.221345 99.992 160.6444
2771.157829 99.992 160.1469
2791.238781 99.991 159.6759
2811.465248 99.989 159.2381
2831.838284 99.983 158.8394
2852.358952 99.973 158.4849
2873.028321 99.957 158.1783
2893.847468 99.934 157.9227
2914.817480 99.903 157.7211
2935.939449 99.863 157.5768
2957.214476 99.813 157.4933
2978.643672 99.752 157.4747
3000.228152 99.680 157.5255
3021.969041 99.598 157.6505
3043.867475 99.506 157.8541
3065.924593 99.405 158.1407
3088.141547 99.297 158.5140
3110.519493 99.183 158.9767
3133.059600 99.066 159.5305
3155.763041 98.949 160.1751
3178.631001 98.834 160.9078
3201.664672 98.724 161.7230
3224.865254 98.622 162.6116
3248.233957 98.531 163.5613
3271.771999 98.453 164.5567
3295.480608 98.390 165.5799
3319.361019 98.344 166.6118
3343.414477 98.314 167.6325
3367.642236 98.301 168.6236
3392.045560 98.305 169.5682
3416.625721 98.324 170.4525
