* Measurement data measured by REW V5.31.3
* Source: EXCL: Headset (USB-C to 3.5mm Headphone Jack Adapter), MICROPHONE (Master Volume), 0, volume: 0.250
* Format: 256k Log Swept Sine, 1 sweep at -12.0 dBFS with no timing reference
* Dated: Feb 9, 2025 6:27:29 PM
* REW Settings:
*  C-weighting compensation: Off
*  Target level: 75.0 dB
* Note: ; 
* Measurement: Satyr 2 (Geekria) R9
* Smoothing: 1/6 octave
* Frequency Step: 96 ppo
* Start Frequency: 20.0 Hz
*
* Freq(Hz) SPL(dB) Phase(degrees)
20.141602 97.300 -47.8885
20.287556 97.311 -48.0931
20.434568 97.324 -48.3661
20.582645 97.336 -48.6990
20.731796 97.345 -49.0831
20.882027 97.348 -49.5103
21.033346 97.344 -49.9736
21.185763 97.332 -50.4678
21.339284 97.311 -50.9889
21.493917 97.281 -51.5341
21.649671 97.243 -52.1017
21.806553 97.199 -52.6903
21.964572 97.149 -53.2987
22.123737 97.096 -53.9256
22.284054 97.042 -54.5696
22.445534 96.988 -55.2288
22.608183 96.937 -55.9010
22.772012 96.889 -56.5837
22.937027 96.848 -57.2743
23.103238 96.813 -57.9699
23.270654 96.787 -58.6678
23.439282 96.770 -59.3653
23.609133 96.764 -60.0601
23.780215 96.769 -60.7502
23.952536 96.785 -61.4339
24.126106 96.812 -62.1098
24.300934 96.851 -62.7773
24.477028 96.900 -63.4358
24.654399 96.959 -64.0856
24.833055 97.027 -64.7272
25.013005 97.101 -65.3619
25.194260 97.182 -65.9911
25.376828 97.265 -66.6167
25.560719 97.352 -67.2410
25.745942 97.438 -67.8660
25.932508 97.524 -68.4937
26.120426 97.608 -69.1256
26.309705 97.688 -69.7627
26.500356 97.764 -70.4048
26.692388 97.835 -71.0513
26.885812 97.900 -71.7006
27.080638 97.960 -72.3503
27.276876 98.014 -72.9980
27.474535 98.063 -73.6411
27.673627 98.110 -74.2773
27.874161 98.155 -74.9054
28.076149 98.200 -75.5248
28.279600 98.250 -76.1360
28.484526 98.305 -76.7407
28.690937 98.370 -77.3411
28.898843 98.447 -77.9397
29.108256 98.537 -78.5392
29.319186 98.642 -79.1417
29.531645 98.762 -79.7488
29.745644 98.897 -80.3612
29.961193 99.044 -80.9788
30.178304 99.200 -81.6009
30.396989 99.361 -82.2266
30.617258 99.524 -82.8545
30.839123 99.684 -83.4838
31.062596 99.835 -84.1136
31.287688 99.973 -84.7436
31.514412 100.095 -85.3736
31.742778 100.195 -86.0036
31.972800 100.272 -86.6338
32.204488 100.322 -87.2642
32.437855 100.345 -87.8948
32.672913 100.340 -88.5254
32.909674 100.308 -89.1560
33.148151 100.249 -89.7866
33.388356 100.167 -90.4173
33.630302 100.064 -91.0481
33.874001 99.944 -91.6793
34.119466 99.810 -92.3109
34.366710 99.668 -92.9429
34.615745 99.520 -93.5747
34.866585 99.372 -94.2060
35.119243 99.227 -94.8359
35.373731 99.090 -95.4641
35.630064 98.963 -96.0899
35.888254 98.849 -96.7135
36.148315 98.751 -97.3350
36.410261 98.671 -97.9551
36.674104 98.610 -98.5744
36.939860 98.570 -99.1937
37.207542 98.550 -99.8139
37.477163 98.552 -100.4354
37.748738 98.576 -101.0588
38.022281 98.622 -101.6842
38.297806 98.688 -102.3116
38.575327 98.776 -102.9408
38.854860 98.883 -103.5715
39.136419 99.009 -104.2030
39.420017 99.154 -104.8343
39.705671 99.315 -105.4645
39.993395 99.492 -106.0928
40.283203 99.683 -106.7185
40.575112 99.887 -107.3415
40.869136 100.103 -107.9623
41.165290 100.329 -108.5818
41.463591 100.563 -109.2012
41.764053 100.804 -109.8217
42.066693 101.049 -110.4442
42.371525 101.297 -111.0691
42.678567 101.545 -111.6961
42.987834 101.790 -112.3245
43.299341 102.031 -112.9529
43.613106 102.264 -113.5796
43.929145 102.487 -114.2024
44.247473 102.699 -114.8191
44.568109 102.897 -115.4272
44.891068 103.080 -116.0247
45.216367 103.247 -116.6104
45.544023 103.396 -117.1838
45.874054 103.529 -117.7455
46.206476 103.644 -118.2972
46.541307 103.741 -118.8414
46.878565 103.821 -119.3808
47.218266 103.884 -119.9178
47.560429 103.930 -120.4548
47.905072 103.961 -120.9935
48.252212 103.978 -121.5353
48.601867 103.981 -122.0812
48.954056 103.972 -122.6321
49.308798 103.954 -123.1886
49.666109 103.927 -123.7507
50.026010 103.894 -124.3179
50.388520 103.857 -124.8894
50.753656 103.817 -125.4637
51.121437 103.777 -126.0394
51.491884 103.737 -126.6147
51.865016 103.699 -127.1882
52.240851 103.664 -127.7587
52.619410 103.632 -128.3252
53.000712 103.603 -128.8871
53.384777 103.577 -129.4440
53.771625 103.554 -129.9955
54.161276 103.534 -130.5415
54.553751 103.515 -131.0824
54.949070 103.497 -131.6182
55.347254 103.479 -132.1497
55.748323 103.459 -132.6775
56.152298 103.438 -133.2024
56.559201 103.415 -133.7251
56.969052 103.389 -134.2464
57.381873 103.360 -134.7666
57.797686 103.328 -135.2859
58.216512 103.293 -135.8040
58.638373 103.255 -136.3208
59.063291 103.215 -136.8357
59.491288 103.171 -137.3484
59.922386 103.126 -137.8587
60.356608 103.079 -138.3667
60.793977 103.031 -138.8723
61.234515 102.981 -139.3758
61.678246 102.931 -139.8772
62.125192 102.880 -140.3766
62.575377 102.830 -140.8739
63.028824 102.780 -141.3692
63.485557 102.731 -141.8627
63.945599 102.684 -142.3544
64.408975 102.639 -142.8442
64.875709 102.595 -143.3320
65.345825 102.555 -143.8173
65.819348 102.517 -144.2999
66.296302 102.483 -144.7795
66.776713 102.451 -145.2561
67.260604 102.423 -145.7295
67.748002 102.397 -146.1998
68.238932 102.375 -146.6669
68.733420 102.354 -147.1303
69.231490 102.336 -147.5896
69.733170 102.319 -148.0444
70.238485 102.304 -148.4941
70.747463 102.290 -148.9383
71.260128 102.278 -149.3767
71.776508 102.266 -149.8092
72.296630 102.255 -150.2358
72.820521 102.246 -150.6565
73.348209 102.238 -151.0711
73.879720 102.231 -151.4797
74.415083 102.225 -151.8821
74.954326 102.220 -152.2784
75.497475 102.215 -152.6688
76.044561 102.211 -153.0534
76.595612 102.206 -153.4328
77.150655 102.201 -153.8074
77.709720 102.195 -154.1779
78.272837 102.186 -154.5449
78.840034 102.176 -154.9092
79.411342 102.163 -155.2716
79.986789 102.147 -155.6326
80.566406 102.128 -155.9926
81.150224 102.105 -156.3517
81.738272 102.081 -156.7100
82.330581 102.053 -157.0673
82.927182 102.025 -157.4234
83.528107 101.997 -157.7781
84.133386 101.971 -158.1314
84.743051 101.949 -158.4834
85.357134 101.933 -158.8343
85.975667 101.928 -159.1844
86.598682 101.935 -159.5342
87.226212 101.960 -159.8839
87.858289 102.003 -160.2336
88.494946 102.069 -160.5835
89.136217 102.159 -160.9334
89.782135 102.273 -161.2831
90.432733 102.410 -161.6324
91.088046 102.569 -161.9813
91.748108 102.745 -162.3297
92.412952 102.933 -162.6773
93.082615 103.129 -163.0244
93.757130 103.327 -163.3708
94.436533 103.522 -163.7165
95.120859 103.709 -164.0617
95.810144 103.883 -164.4064
96.504423 104.042 -164.7508
97.203734 104.185 -165.0952
97.908112 104.309 -165.4398
98.617595 104.416 -165.7849
99.332219 104.507 -166.1305
100.052021 104.582 -166.4767
100.777039 104.644 -166.8233
101.507311 104.696 -167.1698
102.242875 104.739 -167.5157
102.983769 104.775 -167.8604
103.730032 104.805 -168.2033
104.481702 104.830 -168.5440
105.238820 104.850 -168.8822
106.001424 104.864 -169.2181
106.769554 104.871 -169.5517
107.543250 104.870 -169.8835
108.322553 104.858 -170.2135
109.107503 104.835 -170.5420
109.898141 104.799 -170.8689
110.694508 104.749 -171.1940
111.496646 104.686 -171.5170
112.304596 104.609 -171.8375
113.118402 104.520 -172.1552
113.938104 104.420 -172.4698
114.763747 104.312 -172.7807
115.595372 104.198 -173.0878
116.433024 104.080 -173.3907
117.276746 103.959 -173.6893
118.126581 103.839 -173.9833
118.982575 103.720 -174.2727
119.844772 103.603 -174.5573
120.713217 103.490 -174.8368
121.587954 103.379 -175.1111
122.469031 103.270 -175.3800
123.356492 103.162 -175.6434
124.250384 103.055 -175.9014
125.150753 102.946 -176.1544
126.057647 102.834 -176.4027
126.971113 102.718 -176.6472
127.891198 102.597 -176.8887
128.817950 102.471 -177.1280
129.751418 102.338 -177.3660
130.691651 102.200 -177.6036
131.638696 102.058 -177.8414
132.592604 101.912 -178.0802
133.553425 101.765 -178.3204
134.521208 101.619 -178.5626
135.496004 101.478 -178.8069
136.477864 101.344 -179.0536
137.466839 101.221 -179.3027
138.462981 101.113 -179.5542
139.466340 101.021 -179.8080
140.476971 100.947 179.9360
141.494925 100.891 179.6783
142.520256 100.853 179.4192
143.553016 100.831 179.1591
144.593260 100.821 178.8986
145.641043 100.821 178.6382
146.696418 100.826 178.3786
147.759441 100.833 178.1202
148.830166 100.837 177.8636
149.908651 100.836 177.6094
150.994951 100.829 177.3580
152.089123 100.813 177.1100
153.191223 100.790 176.8662
154.301310 100.759 176.6273
155.419441 100.722 176.3937
156.545674 100.681 176.1663
157.680069 100.637 175.9455
158.822683 100.592 175.7318
159.973578 100.548 175.5257
161.132813 100.506 175.3275
162.300447 100.466 175.1371
163.476543 100.430 174.9547
164.661162 100.397 174.7802
165.854364 100.368 174.6131
167.056213 100.343 174.4534
168.266772 100.323 174.3005
169.486102 100.307 174.1541
170.714268 100.297 174.0136
171.951334 100.292 173.8784
173.197364 100.293 173.7479
174.452424 100.300 173.6211
175.716578 100.312 173.4973
176.989893 100.329 173.3755
178.272434 100.349 173.2549
179.564270 100.373 173.1343
180.865467 100.399 173.0129
182.176092 100.424 172.8895
183.496216 100.449 172.7631
184.825905 100.472 172.6329
186.165229 100.493 172.4981
187.514259 100.512 172.3582
188.873065 100.527 172.2128
190.241717 100.541 172.0620
191.620287 100.553 171.9057
193.008847 100.563 171.7441
194.407468 100.573 171.5774
195.816225 100.582 171.4057
197.235190 100.591 171.2293
198.664438 100.599 171.0486
200.104042 100.606 170.8638
201.554078 100.611 170.6753
203.014622 100.614 170.4837
204.485750 100.615 170.2895
205.967538 100.613 170.0934
207.460064 100.606 169.8956
208.963405 100.596 169.6968
210.477640 100.582 169.4971
212.002848 100.564 169.2970
213.539108 100.542 169.0967
215.086500 100.517 168.8964
216.645105 100.488 168.6962
218.215005 100.457 168.4966
219.796281 100.423 168.2981
221.389015 100.386 168.1013
222.993292 100.345 167.9070
224.609193 100.301 167.7159
226.236804 100.253 167.5284
227.876209 100.200 167.3449
229.527494 100.142 167.1659
231.190745 100.078 166.9913
232.866048 100.008 166.8216
234.553491 99.932 166.6568
236.253163 99.852 166.4972
237.965150 99.767 166.3430
239.689544 99.680 166.1945
241.426433 99.590 166.0518
243.175909 99.498 165.9146
244.938062 99.407 165.7830
246.712984 99.316 165.6566
248.500768 99.228 165.5354
250.301507 99.143 165.4191
252.115295 99.061 165.3072
253.942226 98.984 165.1993
255.782396 98.912 165.0950
257.635901 98.846 164.9938
259.502837 98.785 164.8949
261.383301 98.732 164.7978
263.277392 98.685 164.7018
265.185209 98.645 164.6063
267.106850 98.612 164.5107
269.042417 98.586 164.4147
270.992009 98.566 164.3179
272.955729 98.551 164.2202
274.933678 98.542 164.1217
276.925961 98.536 164.0221
278.932681 98.534 163.9213
280.953942 98.535 163.8192
282.989850 98.539 163.7155
285.040511 98.544 163.6104
287.106032 98.552 163.5042
289.186521 98.564 163.3971
291.282086 98.579 163.2898
293.392836 98.599 163.1828
295.518881 98.625 163.0768
297.660333 98.655 162.9723
299.817302 98.691 162.8697
301.989902 98.732 162.7695
304.178245 98.776 162.6719
306.382446 98.822 162.5771
308.602620 98.869 162.4852
310.838882 98.913 162.3963
313.091348 98.955 162.3102
315.360137 98.992 162.2268
317.645367 99.023 162.1458
319.947156 99.047 162.0668
322.265625 99.063 161.9890
324.600895 99.070 161.9118
326.953086 99.068 161.8342
329.322323 99.055 161.7554
331.708729 99.033 161.6748
334.112427 99.000 161.5916
336.533543 98.957 161.5055
338.972204 98.903 161.4160
341.428536 98.841 161.3230
343.902668 98.769 161.2263
346.394729 98.690 161.1263
348.904848 98.605 161.0233
351.433156 98.515 160.9179
353.979786 98.422 160.8107
356.544869 98.329 160.7025
359.128540 98.239 160.5942
361.730934 98.153 160.4867
364.352185 98.075 160.3809
366.992431 98.007 160.2780
369.651810 97.952 160.1790
372.330459 97.912 160.0851
375.028519 97.887 159.9975
377.746130 97.880 159.9176
380.483434 97.888 159.8468
383.240574 97.911 159.7866
386.017693 97.948 159.7386
388.814937 97.996 159.7040
391.632450 98.052 159.6839
394.470380 98.115 159.6790
397.328875 98.181 159.6895
400.208084 98.250 159.7153
403.108157 98.318 159.7557
406.029245 98.386 159.8096
408.971500 98.453 159.8757
411.935076 98.519 159.9524
414.920127 98.583 160.0379
417.926810 98.647 160.1305
420.955280 98.711 160.2283
424.005695 98.776 160.3297
427.078215 98.842 160.4328
430.173000 98.911 160.5362
433.290211 98.983 160.6383
436.430010 99.057 160.7377
439.592562 99.132 160.8331
442.778031 99.208 160.9227
445.986583 99.283 161.0049
449.218386 99.355 161.0782
452.473607 99.423 161.1406
455.752418 99.485 161.1905
459.054987 99.539 161.2262
462.381489 99.584 161.2463
465.732096 99.619 161.2496
469.106983 99.643 161.2354
472.506325 99.656 161.2033
475.930301 99.659 161.1533
479.379088 99.652 161.0860
482.852867 99.635 161.0023
486.351817 99.610 160.9035
489.876123 99.577 160.7913
493.425968 99.537 160.6675
497.001536 99.490 160.5343
500.603014 99.436 160.3941
504.230589 99.377 160.2493
507.884452 99.311 160.1023
511.564792 99.238 159.9556
515.271802 99.160 159.8116
519.005673 99.075 159.6729
522.766602 98.985 159.5419
526.554785 98.891 159.4214
530.370418 98.794 159.3139
534.213700 98.697 159.2222
538.084833 98.600 159.1494
541.984018 98.506 159.0988
545.911457 98.417 159.0740
549.867357 98.333 159.0793
553.851922 98.256 159.1195
557.865362 98.184 159.1999
561.907884 98.119 159.3261
565.979700 98.058 159.5037
570.081022 98.002 159.7377
574.212064 97.949 160.0321
578.373042 97.900 160.3890
582.564171 97.853 160.8083
586.785671 97.809 161.2867
591.037762 97.768 161.8172
595.320665 97.731 162.3896
599.634604 97.698 162.9904
603.979804 97.670 163.6038
608.356491 97.648 164.2128
612.764893 97.630 164.8007
617.205240 97.618 165.3521
621.677763 97.611 165.8539
626.182696 97.610 166.2965
630.720274 97.614 166.6732
635.290733 97.623 166.9810
639.894312 97.637 167.2194
644.531250 97.656 167.3907
649.201789 97.679 167.4992
653.906173 97.708 167.5505
658.644647 97.740 167.5511
663.417457 97.774 167.5084
668.224854 97.810 167.4292
673.067086 97.846 167.3209
677.944408 97.880 167.1901
682.857073 97.911 167.0436
687.805336 97.936 166.8878
692.789457 97.955 166.7288
697.809695 97.967 166.5724
702.866312 97.969 166.4243
707.959571 97.963 166.2901
713.089738 97.948 166.1750
718.257080 97.924 166.0839
723.461867 97.892 166.0216
728.704370 97.853 165.9922
733.984862 97.808 165.9994
739.303619 97.759 166.0455
744.660918 97.708 166.1321
750.057038 97.655 166.2597
755.492260 97.604 166.4272
760.966869 97.554 166.6323
766.481148 97.508 166.8705
772.035387 97.466 167.1358
777.629873 97.429 167.4201
783.264900 97.397 167.7137
788.940760 97.369 168.0060
794.657750 97.344 168.2858
800.416168 97.321 168.5423
806.216313 97.299 168.7661
812.058489 97.276 168.9494
817.943000 97.250 169.0868
823.870152 97.221 169.1754
829.840255 97.187 169.2142
835.853619 97.148 169.2049
841.910559 97.103 169.1508
848.011390 97.053 169.0567
854.156430 96.996 168.9286
860.346000 96.935 168.7731
866.580422 96.870 168.5968
872.860020 96.801 168.4063
879.185124 96.729 168.2076
885.556062 96.657 168.0063
891.973166 96.585 167.8072
898.436771 96.514 167.6146
904.947215 96.447 167.4317
911.504835 96.385 167.2614
918.109975 96.329 167.1057
924.762978 96.281 166.9659
931.464192 96.241 166.8427
938.213966 96.210 166.7357
945.012651 96.189 166.6442
951.860602 96.178 166.5665
958.758176 96.178 166.5004
965.705733 96.186 166.4432
972.703635 96.203 166.3920
979.752246 96.229 166.3441
986.851935 96.261 166.2972
994.003071 96.300 166.2494
1001.206027 96.346 166.1989
1008.461179 96.397 166.1444
1015.768904 96.454 166.0849
1023.129584 96.518 166.0198
1030.543603 96.588 165.9490
1038.011347 96.665 165.8724
1045.533205 96.750 165.7900
1053.109569 96.843 165.7015
1060.740836 96.944 165.6061
1068.427401 97.053 165.5025
1076.169666 97.169 165.3890
1083.968035 97.291 165.2636
1091.822915 97.417 165.1239
1099.734713 97.545 164.9676
1107.703844 97.674 164.7922
1115.730723 97.800 164.5960
1123.815768 97.921 164.3778
1131.959400 98.036 164.1371
1140.162045 98.143 163.8745
1148.424129 98.242 163.5915
1156.746083 98.331 163.2906
1165.128342 98.412 162.9746
1173.571343 98.484 162.6470
1182.075524 98.549 162.3110
1190.641331 98.608 161.9702
1199.269209 98.663 161.6274
1207.959608 98.713 161.2858
1216.712981 98.762 160.9476
1225.529785 98.808 160.6142
1234.410479 98.854 160.2861
1243.355526 98.897 159.9627
1252.365393 98.940 159.6422
1261.440549 98.980 159.3216
1270.581467 99.018 158.9979
1279.788624 99.051 158.6680
1289.062500 99.080 158.3291
1298.403578 99.103 157.9801
1307.812346 99.120 157.6213
1317.289293 99.129 157.2549
1326.834914 99.131 156.8844
1336.449707 99.125 156.5145
1346.134173 99.112 156.1505
1355.888816 99.092 155.7976
1365.714145 99.064 155.4599
1375.610673 99.030 155.1406
1385.578915 98.991 154.8418
1395.619391 98.945 154.5647
1405.732624 98.894 154.3105
1415.919142 98.838 154.0804
1426.179476 98.777 153.8763
1436.514160 98.712 153.7001
1446.923734 98.644 153.5538
1457.408740 98.574 153.4394
1467.969724 98.502 153.3582
1478.607238 98.430 153.3120
1489.321836 98.360 153.3022
1500.114076 98.291 153.3309
1510.984521 98.225 153.3995
1521.933737 98.162 153.5088
1532.962297 98.104 153.6587
1544.070773 98.051 153.8478
1555.259747 98.003 154.0740
1566.529800 97.960 154.3351
1577.881521 97.921 154.6291
1589.315501 97.887 154.9544
1600.832336 97.856 155.3105
1612.432627 97.829 155.6973
1624.116978 97.805 156.1152
1635.886000 97.785 156.5647
1647.740304 97.769 157.0458
1659.680509 97.757 157.5587
1671.707238 97.752 158.1025
1683.821118 97.753 158.6749
1696.022780 97.762 159.2713
1708.312860 97.780 159.8851
1720.692000 97.807 160.5072
1733.160843 97.845 161.1265
1745.720041 97.892 161.7310
1758.370248 97.948 162.3097
1771.112124 98.010 162.8538
1783.946332 98.078 163.3594
1796.873543 98.148 163.8268
1809.894429 98.220 164.2599
1823.009670 98.292 164.6640
1836.219950 98.364 165.0436
1849.525956 98.437 165.4018
1862.928384 98.509 165.7401
1876.427931 98.582 166.0589
1890.025301 98.656 166.3585
1903.721204 98.730 166.6393
1917.516352 98.805 166.9013
1931.411466 98.882 167.1445
1945.407270 98.959 167.3681
1959.504493 99.036 167.5700
1973.703870 99.114 167.7468
1988.006142 99.190 167.8937
2002.412054 99.264 168.0055
2016.922357 99.334 168.0776
2031.537808 99.397 168.1075
2046.259169 99.453 168.0955
2061.087206 99.500 168.0451
2076.022694 99.538 167.9621
2091.066410 99.565 167.8528
2106.219139 99.584 167.7224
2121.481671 99.597 167.5723
2136.854802 99.603 167.4009
2152.339333 99.607 167.2034
2167.936071 99.608 166.9736
2183.645829 99.609 166.7059
2199.469427 99.609 166.3957
2215.407689 99.609 166.0398
2231.461446 99.610 165.6368
2247.631536 99.610 165.1861
2263.918800 99.611 164.6879
2280.324089 99.610 164.1432
2296.848258 99.607 163.5543
2313.492167 99.601 162.9239
2330.256685 99.590 162.2563
2347.142685 99.575 161.5569
2364.151049 99.553 160.8317
2381.282662 99.524 160.0872
2398.538418 99.487 159.3298
2415.919216 99.443 158.5653
2433.425962 99.392 157.7989
2451.059570 99.333 157.0350
2468.820958 99.266 156.2778
2486.711052 99.193 155.5317
2504.730786 99.114 154.8010
2522.881098 99.029 154.0905
2541.162934 98.939 153.4043
2559.577248 98.845 152.7460
2578.125000 98.749 152.1180
2596.807157 98.651 151.5215
2615.624692 98.554 150.9571
2634.578586 98.458 150.4251
2653.669829 98.364 149.9262
2672.899414 98.273 149.4615
2692.268345 98.186 149.0330
2711.777632 98.103 148.6433
2731.428290 98.023 148.2957
2751.221345 97.946 147.9946
2771.157829 97.873 147.7451
2791.238781 97.800 147.5531
2811.465248 97.729 147.4248
2831.838284 97.658 147.3664
2852.358952 97.585 147.3833
2873.028321 97.510 147.4802
2893.847468 97.432 147.6609
2914.817480 97.350 147.9290
2935.939449 97.264 148.2871
2957.214476 97.173 148.7379
2978.643672 97.076 149.2837
3000.228152 96.975 149.9262
3021.969041 96.870 150.6666
3043.867475 96.763 151.5052
3065.924593 96.654 152.4408
3088.141547 96.547 153.4706
3110.519493 96.442 154.5896
3133.059600 96.344 155.7903
3155.763041 96.254 157.0615
3178.631001 96.175 158.3889
3201.664672 96.111 159.7542
3224.865254 96.062 161.1366
3248.233957 96.030 162.5137
3271.771999 96.015 163.8632
3295.480608 96.019 165.1646
3319.361019 96.038 166.4005
