* Measurement data measured by REW V5.31.3
* Source: EXCL: Headset (USB-C to 3.5mm Headphone Jack Adapter), MICROPHONE (Master Volume), 0, volume: 0.250
* Format: 256k Log Swept Sine, 1 sweep at -12.0 dBFS with no timing reference
* Dated: Feb 9, 2025 6:21:16 PM
* REW Settings:
*  C-weighting compensation: Off
*  Target level: 75.0 dB
* Note: ; 
* Measurement: Satyr 2 (Geekria) L9
* Smoothing: 1/6 octave
* Frequency Step: 96 ppo
* Start Frequency: 20.0 Hz
*
* Freq(Hz) SPL(dB) Phase(degrees)
20.141602 91.399 -30.1122
20.287556 91.422 -30.3528
20.434568 91.451 -30.6737
20.582645 91.481 -31.0646
20.731796 91.510 -31.5146
20.882027 91.535 -32.0126
21.033346 91.553 -32.5484
21.185763 91.561 -33.1125
21.339284 91.560 -33.6968
21.493917 91.548 -34.2941
21.649671 91.526 -34.8979
21.806553 91.496 -35.5030
21.964572 91.459 -36.1046
22.123737 91.417 -36.6989
22.284054 91.373 -37.2828
22.445534 91.328 -37.8543
22.608183 91.287 -38.4124
22.772012 91.251 -38.9574
22.937027 91.223 -39.4910
23.103238 91.204 -40.0162
23.270654 91.198 -40.5369
23.439282 91.206 -41.0582
23.609133 91.227 -41.5854
23.780215 91.263 -42.1237
23.952536 91.314 -42.6779
24.126106 91.377 -43.2513
24.300934 91.453 -43.8457
24.477028 91.538 -44.4613
24.654399 91.631 -45.0962
24.833055 91.730 -45.7471
25.013005 91.832 -46.4095
25.194260 91.935 -47.0780
25.376828 92.038 -47.7473
25.560719 92.139 -48.4126
25.745942 92.238 -49.0699
25.932508 92.333 -49.7166
26.120426 92.425 -50.3515
26.309705 92.512 -50.9750
26.500356 92.596 -51.5881
26.692388 92.675 -52.1927
26.885812 92.750 -52.7908
27.080638 92.822 -53.3839
27.276876 92.889 -53.9731
27.474535 92.954 -54.5585
27.673627 93.016 -55.1397
27.874161 93.079 -55.7160
28.076149 93.143 -56.2867
28.279600 93.212 -56.8517
28.484526 93.288 -57.4120
28.690937 93.375 -57.9696
28.898843 93.476 -58.5275
29.108256 93.592 -59.0898
29.319186 93.725 -59.6606
29.531645 93.874 -60.2439
29.745644 94.039 -60.8429
29.961193 94.216 -61.4594
30.178304 94.403 -62.0935
30.396989 94.595 -62.7439
30.617258 94.786 -63.4079
30.839123 94.972 -64.0817
31.062596 95.148 -64.7612
31.287688 95.310 -65.4423
31.514412 95.452 -66.1212
31.742778 95.573 -66.7950
31.972800 95.667 -67.4614
32.204488 95.735 -68.1194
32.437855 95.774 -68.7685
32.672913 95.785 -69.4092
32.909674 95.767 -70.0423
33.148151 95.722 -70.6696
33.388356 95.654 -71.2929
33.630302 95.564 -71.9145
33.874001 95.457 -72.5367
34.119466 95.337 -73.1618
34.366710 95.208 -73.7914
34.615745 95.074 -74.4269
34.866585 94.941 -75.0689
35.119243 94.813 -75.7175
35.373731 94.694 -76.3725
35.630064 94.588 -77.0330
35.888254 94.498 -77.6985
36.148315 94.426 -78.3678
36.410261 94.376 -79.0401
36.674104 94.347 -79.7141
36.939860 94.341 -80.3883
37.207542 94.358 -81.0607
37.477163 94.396 -81.7293
37.748738 94.456 -82.3923
38.022281 94.536 -83.0482
38.297806 94.636 -83.6964
38.575327 94.756 -84.3376
38.854860 94.893 -84.9731
39.136419 95.048 -85.6055
39.420017 95.219 -86.2374
39.705671 95.407 -86.8714
39.993395 95.608 -87.5096
40.283203 95.824 -88.1531
40.575112 96.051 -88.8022
40.869136 96.290 -89.4564
41.165290 96.538 -90.1143
41.463591 96.794 -90.7746
41.764053 97.055 -91.4357
42.066693 97.321 -92.0962
42.371525 97.588 -92.7553
42.678567 97.854 -93.4126
42.987834 98.118 -94.0685
43.299341 98.375 -94.7236
43.613106 98.624 -95.3787
43.929145 98.863 -96.0347
44.247473 99.090 -96.6920
44.568109 99.303 -97.3507
44.891068 99.501 -98.0108
45.216367 99.683 -98.6717
45.544023 99.849 -99.3334
45.874054 99.998 -99.9956
46.206476 100.129 -100.6585
46.541307 100.243 -101.3221
46.878565 100.340 -101.9862
47.218266 100.420 -102.6503
47.560429 100.484 -103.3130
47.905072 100.533 -103.9730
48.252212 100.567 -104.6285
48.601867 100.588 -105.2779
48.954056 100.597 -105.9203
49.308798 100.597 -106.5551
49.666109 100.588 -107.1827
50.026010 100.573 -107.8037
50.388520 100.554 -108.4190
50.753656 100.531 -109.0296
51.121437 100.506 -109.6365
51.491884 100.482 -110.2403
51.865016 100.458 -110.8419
52.240851 100.435 -111.4417
52.619410 100.416 -112.0403
53.000712 100.399 -112.6381
53.384777 100.386 -113.2356
53.771625 100.376 -113.8332
54.161276 100.368 -114.4309
54.553751 100.361 -115.0286
54.949070 100.355 -115.6260
55.347254 100.349 -116.2226
55.748323 100.341 -116.8177
56.152298 100.332 -117.4107
56.559201 100.320 -118.0008
56.969052 100.306 -118.5874
57.381873 100.288 -119.1696
57.797686 100.268 -119.7464
58.216512 100.244 -120.3172
58.638373 100.218 -120.8815
59.063291 100.190 -121.4392
59.491288 100.160 -121.9909
59.922386 100.128 -122.5373
60.356608 100.095 -123.0793
60.793977 100.061 -123.6176
61.234515 100.026 -124.1527
61.678246 99.989 -124.6851
62.125192 99.953 -125.2151
62.575377 99.916 -125.7432
63.028824 99.880 -126.2697
63.485557 99.844 -126.7950
63.945599 99.811 -127.3195
64.408975 99.779 -127.8435
64.875709 99.749 -128.3674
65.345825 99.722 -128.8917
65.819348 99.698 -129.4167
66.296302 99.676 -129.9424
66.776713 99.657 -130.4688
67.260604 99.640 -130.9949
67.748002 99.626 -131.5199
68.238932 99.614 -132.0427
68.733420 99.604 -132.5621
69.231490 99.597 -133.0774
69.733170 99.591 -133.5880
70.238485 99.587 -134.0937
70.747463 99.584 -134.5942
71.260128 99.583 -135.0891
71.776508 99.583 -135.5780
72.296630 99.584 -136.0606
72.820521 99.586 -136.5363
73.348209 99.588 -137.0050
73.879720 99.592 -137.4667
74.415083 99.596 -137.9219
74.954326 99.601 -138.3715
75.497475 99.606 -138.8162
76.044561 99.612 -139.2571
76.595612 99.617 -139.6945
77.150655 99.621 -140.1288
77.709720 99.624 -140.5598
78.272837 99.626 -140.9870
78.840034 99.625 -141.4100
79.411342 99.622 -141.8288
79.986789 99.615 -142.2431
80.566406 99.606 -142.6535
81.150224 99.594 -143.0604
81.738272 99.578 -143.4644
82.330581 99.561 -143.8664
82.927182 99.543 -144.2671
83.528107 99.525 -144.6668
84.133386 99.509 -145.0660
84.743051 99.498 -145.4647
85.357134 99.493 -145.8627
85.975667 99.499 -146.2600
86.598682 99.519 -146.6563
87.226212 99.555 -147.0516
87.858289 99.611 -147.4459
88.494946 99.690 -147.8392
89.136217 99.792 -148.2317
89.782135 99.919 -148.6236
90.432733 100.069 -149.0153
91.088046 100.240 -149.4072
91.748108 100.428 -149.7997
92.412952 100.628 -150.1928
93.082615 100.835 -150.5865
93.757130 101.043 -150.9807
94.436533 101.248 -151.3751
95.120859 101.444 -151.7696
95.810144 101.627 -152.1643
96.504423 101.796 -152.5593
97.203734 101.947 -152.9550
97.908112 102.080 -153.3518
98.617595 102.196 -153.7502
99.332219 102.295 -154.1501
100.052021 102.380 -154.5518
100.777039 102.452 -154.9551
101.507311 102.514 -155.3596
102.242875 102.567 -155.7649
102.983769 102.613 -156.1704
103.730032 102.654 -156.5755
104.481702 102.690 -156.9795
105.238820 102.720 -157.3820
106.001424 102.744 -157.7830
106.769554 102.761 -158.1826
107.543250 102.769 -158.5814
108.322553 102.767 -158.9800
109.107503 102.753 -159.3790
109.898141 102.726 -159.7788
110.694508 102.684 -160.1794
111.496646 102.629 -160.5805
112.304596 102.560 -160.9816
113.118402 102.479 -161.3819
113.938104 102.386 -161.7807
114.763747 102.285 -162.1771
115.595372 102.177 -162.5705
116.433024 102.065 -162.9601
117.276746 101.950 -163.3453
118.126581 101.836 -163.7256
118.982575 101.722 -164.1006
119.844772 101.609 -164.4702
120.713217 101.500 -164.8342
121.587954 101.392 -165.1928
122.469031 101.285 -165.5457
123.356492 101.179 -165.8925
124.250384 101.073 -166.2327
125.150753 100.964 -166.5653
126.057647 100.852 -166.8893
126.971113 100.735 -167.2037
127.891198 100.613 -167.5077
128.817950 100.485 -167.8008
129.751418 100.350 -168.0827
130.691651 100.210 -168.3537
131.638696 100.066 -168.6145
132.592604 99.919 -168.8663
133.553425 99.772 -169.1106
134.521208 99.629 -169.3496
135.496004 99.491 -169.5855
136.477864 99.364 -169.8210
137.466839 99.250 -170.0588
138.462981 99.153 -170.3020
139.466340 99.075 -170.5534
140.476971 99.017 -170.8158
141.494925 98.980 -171.0917
142.520256 98.962 -171.3828
143.553016 98.961 -171.6900
144.593260 98.973 -172.0139
145.641043 98.994 -172.3538
146.696418 99.020 -172.7088
147.759441 99.046 -173.0776
148.830166 99.069 -173.4585
149.908651 99.085 -173.8496
150.994951 99.093 -174.2492
152.089123 99.091 -174.6555
153.191223 99.079 -175.0667
154.301310 99.057 -175.4813
155.419441 99.028 -175.8975
156.545674 98.992 -176.3137
157.680069 98.952 -176.7283
158.822683 98.908 -177.1398
159.973578 98.863 -177.5469
161.132813 98.818 -177.9484
162.300447 98.773 -178.3431
163.476543 98.730 -178.7301
164.661162 98.688 -179.1083
165.854364 98.649 -179.4770
167.056213 98.611 -179.8353
168.266772 98.576 179.8174
169.486102 98.544 179.4820
170.714268 98.515 179.1588
171.951334 98.490 178.8486
173.197364 98.467 178.5517
174.452424 98.449 178.2687
175.716578 98.434 177.9998
176.989893 98.422 177.7454
178.272434 98.412 177.5054
179.564270 98.404 177.2800
180.865467 98.396 177.0693
182.176092 98.388 176.8733
183.496216 98.379 176.6920
184.825905 98.367 176.5253
186.165229 98.354 176.3731
187.514259 98.338 176.2353
188.873065 98.320 176.1116
190.241717 98.301 176.0020
191.620287 98.280 175.9059
193.008847 98.260 175.8229
194.407468 98.241 175.7520
195.816225 98.222 175.6919
197.235190 98.204 175.6407
198.664438 98.187 175.5963
200.104042 98.172 175.5562
201.554078 98.156 175.5184
203.014622 98.140 175.4811
204.485750 98.123 175.4434
205.967538 98.104 175.4050
207.460064 98.084 175.3664
208.963405 98.061 175.3279
210.477640 98.036 175.2903
212.002848 98.009 175.2540
213.539108 97.980 175.2191
215.086500 97.950 175.1859
216.645105 97.919 175.1541
218.215005 97.887 175.1239
219.796281 97.853 175.0949
221.389015 97.819 175.0670
222.993292 97.783 175.0399
224.609193 97.744 175.0132
226.236804 97.703 174.9866
227.876209 97.658 174.9598
229.527494 97.608 174.9324
231.190745 97.555 174.9039
232.866048 97.496 174.8740
234.553491 97.434 174.8419
236.253163 97.367 174.8073
237.965150 97.297 174.7697
239.689544 97.224 174.7286
241.426433 97.150 174.6840
243.175909 97.074 174.6361
244.938062 96.999 174.5851
246.712984 96.925 174.5317
248.500768 96.852 174.4765
250.301507 96.782 174.4204
252.115295 96.715 174.3644
253.942226 96.653 174.3094
255.782396 96.595 174.2560
257.635901 96.542 174.2047
259.502837 96.495 174.1559
261.383301 96.454 174.1094
263.277392 96.419 174.0652
265.185209 96.390 174.0230
267.106850 96.368 173.9828
269.042417 96.353 173.9446
270.992009 96.343 173.9084
272.955729 96.340 173.8743
274.933678 96.341 173.8422
276.925961 96.348 173.8119
278.932681 96.359 173.7828
280.953942 96.374 173.7538
282.989850 96.393 173.7239
285.040511 96.415 173.6916
287.106032 96.441 173.6558
289.186521 96.471 173.6150
291.282086 96.506 173.5683
293.392836 96.545 173.5149
295.518881 96.590 173.4541
297.660333 96.641 173.3856
299.817302 96.696 173.3093
301.989902 96.756 173.2254
304.178245 96.818 173.1341
306.382446 96.882 173.0360
308.602620 96.944 172.9319
310.838882 97.004 172.8227
313.091348 97.060 172.7097
315.360137 97.110 172.5945
317.645367 97.152 172.4785
319.947156 97.187 172.3630
322.265625 97.212 172.2494
324.600895 97.227 172.1385
326.953086 97.231 172.0313
329.322323 97.225 171.9283
331.708729 97.207 171.8299
334.112427 97.178 171.7366
336.533543 97.138 171.6484
338.972204 97.088 171.5656
341.428536 97.027 171.4883
343.902668 96.958 171.4166
346.394729 96.881 171.3508
348.904848 96.799 171.2907
351.433156 96.713 171.2366
353.979786 96.626 171.1883
356.544869 96.540 171.1454
359.128540 96.458 171.1078
361.730934 96.383 171.0746
364.352185 96.319 171.0453
366.992431 96.268 171.0189
369.651810 96.232 170.9944
372.330459 96.214 170.9705
375.028519 96.214 170.9460
377.746130 96.233 170.9199
380.483434 96.270 170.8909
383.240574 96.324 170.8582
386.017693 96.392 170.8212
388.814937 96.471 170.7793
391.632450 96.559 170.7322
394.470380 96.653 170.6801
397.328875 96.750 170.6235
400.208084 96.847 170.5628
403.108157 96.943 170.4987
406.029245 97.037 170.4318
408.971500 97.127 170.3618
411.935076 97.214 170.2887
414.920127 97.298 170.2117
417.926810 97.378 170.1302
420.955280 97.455 170.0434
424.005695 97.530 169.9509
427.078215 97.602 169.8530
430.173000 97.673 169.7499
433.290211 97.743 169.6431
436.430010 97.810 169.5343
439.592562 97.874 169.4257
442.778031 97.933 169.3201
445.986583 97.988 169.2207
449.218386 98.035 169.1312
452.473607 98.074 169.0558
455.752418 98.104 168.9990
459.054987 98.122 168.9654
462.381489 98.130 168.9593
465.732096 98.126 168.9847
469.106983 98.111 169.0442
472.506325 98.087 169.1389
475.930301 98.054 169.2681
479.379088 98.015 169.4293
482.852867 97.970 169.6179
486.351817 97.923 169.8283
489.876123 97.875 170.0538
493.425968 97.826 170.2876
497.001536 97.778 170.5229
500.603014 97.731 170.7536
504.230589 97.685 170.9745
507.884452 97.640 171.1819
511.564792 97.596 171.3727
515.271802 97.551 171.5456
519.005673 97.506 171.7003
522.766602 97.461 171.8372
526.554785 97.417 171.9574
530.370418 97.375 172.0625
534.213700 97.337 172.1541
538.084833 97.304 172.2340
541.984018 97.277 172.3036
545.911457 97.258 172.3645
549.867357 97.248 172.4180
553.851922 97.246 172.4653
557.865362 97.252 172.5074
561.907884 97.265 172.5450
565.979700 97.283 172.5789
570.081022 97.303 172.6098
574.212064 97.325 172.6383
578.373042 97.345 172.6652
582.564171 97.362 172.6913
586.785671 97.374 172.7173
591.037762 97.381 172.7441
595.320665 97.381 172.7722
599.634604 97.374 172.8022
603.979804 97.359 172.8347
608.356491 97.337 172.8699
612.764893 97.309 172.9082
617.205240 97.275 172.9498
621.677763 97.236 172.9947
626.182696 97.195 173.0430
630.720274 97.152 173.0945
635.290733 97.109 173.1489
639.894312 97.070 173.2058
644.531250 97.035 173.2646
649.201789 97.006 173.3250
653.906173 96.984 173.3865
658.644647 96.970 173.4486
663.417457 96.965 173.5110
668.224854 96.967 173.5729
673.067086 96.975 173.6340
677.944408 96.988 173.6933
682.857073 97.005 173.7499
687.805336 97.024 173.8029
692.789457 97.043 173.8511
697.809695 97.060 173.8935
702.866312 97.075 173.9291
707.959571 97.086 173.9571
713.089738 97.093 173.9768
718.257080 97.095 173.9878
723.461867 97.093 173.9902
728.704370 97.086 173.9847
733.984862 97.074 173.9721
739.303619 97.058 173.9540
744.660918 97.039 173.9321
750.057038 97.017 173.9081
755.492260 96.993 173.8840
760.966869 96.966 173.8615
766.481148 96.937 173.8423
772.035387 96.906 173.8277
777.629873 96.873 173.8191
783.264900 96.836 173.8175
788.940760 96.796 173.8236
794.657750 96.751 173.8377
800.416168 96.702 173.8598
806.216313 96.647 173.8891
812.058489 96.587 173.9243
817.943000 96.521 173.9637
823.870152 96.450 174.0056
829.840255 96.373 174.0484
835.853619 96.292 174.0908
841.910559 96.206 174.1323
848.011390 96.118 174.1729
854.156430 96.027 174.2131
860.346000 95.936 174.2540
866.580422 95.844 174.2964
872.860020 95.755 174.3411
879.185124 95.668 174.3888
885.556062 95.585 174.4397
891.973166 95.508 174.4936
898.436771 95.439 174.5500
904.947215 95.377 174.6080
911.504835 95.326 174.6661
918.109975 95.285 174.7228
924.762978 95.255 174.7758
931.464192 95.237 174.8232
938.213966 95.231 174.8627
945.012651 95.236 174.8921
951.860602 95.252 174.9097
958.758176 95.278 174.9141
965.705733 95.314 174.9045
972.703635 95.356 174.8810
979.752246 95.405 174.8437
986.851935 95.460 174.7932
994.003071 95.520 174.7300
1001.206027 95.583 174.6550
1008.461179 95.650 174.5687
1015.768904 95.722 174.4717
1023.129584 95.797 174.3644
1030.543603 95.877 174.2476
1038.011347 95.962 174.1219
1045.533205 96.053 173.9884
1053.109569 96.149 173.8482
1060.740836 96.251 173.7029
1068.427401 96.359 173.5546
1076.169666 96.471 173.4055
1083.968035 96.587 173.2583
1091.822915 96.705 173.1154
1099.734713 96.825 172.9784
1107.703844 96.945 172.8479
1115.730723 97.064 172.7231
1123.815768 97.181 172.6017
1131.959400 97.294 172.4798
1140.162045 97.403 172.3529
1148.424129 97.507 172.2158
1156.746083 97.606 172.0637
1165.128342 97.700 171.8922
1173.571343 97.790 171.6978
1182.075524 97.875 171.4780
1190.641331 97.956 171.2315
1199.269209 98.033 170.9587
1207.959608 98.106 170.6611
1216.712981 98.176 170.3412
1225.529785 98.242 170.0028
1234.410479 98.303 169.6507
1243.355526 98.358 169.2906
1252.365393 98.408 168.9291
1261.440549 98.451 168.5723
1270.581467 98.487 168.2252
1279.788624 98.517 167.8920
1289.062500 98.539 167.5759
1298.403578 98.555 167.2791
1307.812346 98.565 167.0031
1317.289293 98.568 166.7491
1326.834914 98.567 166.5179
1336.449707 98.561 166.3102
1346.134173 98.550 166.1263
1355.888816 98.537 165.9665
1365.714145 98.520 165.8303
1375.610673 98.501 165.7166
1385.578915 98.481 165.6231
1395.619391 98.458 165.5474
1405.732624 98.434 165.4869
1415.919142 98.407 165.4399
1426.179476 98.380 165.4061
1436.514160 98.351 165.3865
1446.923734 98.321 165.3826
1457.408740 98.291 165.3962
1467.969724 98.263 165.4282
1478.607238 98.237 165.4785
1489.321836 98.214 165.5457
1500.114076 98.195 165.6277
1510.984521 98.181 165.7222
1521.933737 98.171 165.8281
1532.962297 98.165 165.9455
1544.070773 98.163 166.0753
1555.259747 98.164 166.2194
1566.529800 98.169 166.3793
1577.881521 98.175 166.5568
1589.315501 98.184 166.7527
1600.832336 98.195 166.9682
1612.432627 98.208 167.2034
1624.116978 98.223 167.4583
1635.886000 98.240 167.7308
1647.740304 98.260 168.0179
1659.680509 98.283 168.3152
1671.707238 98.310 168.6185
1683.821118 98.339 168.9249
1696.022780 98.371 169.2330
1708.312860 98.407 169.5435
1720.692000 98.445 169.8581
1733.160843 98.487 170.1785
1745.720041 98.532 170.5057
1758.370248 98.581 170.8399
1771.112124 98.633 171.1804
1783.946332 98.690 171.5253
1796.873543 98.750 171.8720
1809.894429 98.813 172.2170
1823.009670 98.880 172.5555
1836.219950 98.950 172.8824
1849.525956 99.021 173.1931
1862.928384 99.095 173.4847
1876.427931 99.170 173.7556
1890.025301 99.246 174.0047
1903.721204 99.324 174.2309
1917.516352 99.402 174.4328
1931.411466 99.481 174.6097
1945.407270 99.559 174.7620
1959.504493 99.637 174.8905
1973.703870 99.712 174.9964
1988.006142 99.784 175.0801
2002.412054 99.852 175.1419
2016.922357 99.914 175.1824
2031.537808 99.971 175.2022
2046.259169 100.020 175.2018
2061.087206 100.063 175.1808
2076.022694 100.099 175.1382
2091.066410 100.128 175.0718
2106.219139 100.151 174.9793
2121.481671 100.168 174.8579
2136.854802 100.180 174.7050
2152.339333 100.188 174.5186
2167.936071 100.192 174.2978
2183.645829 100.193 174.0427
2199.469427 100.192 173.7548
2215.407689 100.190 173.4361
2231.461446 100.187 173.0892
2247.631536 100.183 172.7167
2263.918800 100.178 172.3206
2280.324089 100.174 171.9022
2296.848258 100.170 171.4625
2313.492167 100.165 171.0022
2330.256685 100.159 170.5227
2347.142685 100.151 170.0258
2364.151049 100.141 169.5141
2381.282662 100.129 168.9907
2398.538418 100.113 168.4586
2415.919216 100.094 167.9211
2433.425962 100.072 167.3810
2451.059570 100.048 166.8408
2468.820958 100.020 166.3030
2486.711052 99.991 165.7697
2504.730786 99.961 165.2421
2522.881098 99.930 164.7208
2541.162934 99.900 164.2057
2559.577248 99.871 163.6959
2578.125000 99.846 163.1897
2596.807157 99.823 162.6844
2615.624692 99.806 162.1769
2634.578586 99.793 161.6644
2653.669829 99.785 161.1447
2672.899414 99.782 160.6169
2692.268345 99.784 160.0822
2711.777632 99.789 159.5435
2731.428290 99.797 159.0057
2751.221345 99.806 158.4753
2771.157829 99.815 157.9598
2791.238781 99.823 157.4669
2811.465248 99.829 157.0035
2831.838284 99.831 156.5760
2852.358952 99.828 156.1893
2873.028321 99.820 155.8473
2893.847468 99.805 155.5530
2914.817480 99.781 155.3094
2935.939449 99.747 155.1195
2957.214476 99.703 154.9868
2978.643672 99.648 154.9155
3000.228152 99.582 154.9105
3021.969041 99.504 154.9768
3043.867475 99.416 155.1196
3065.924593 99.319 155.3439
3088.141547 99.214 155.6539
3110.519493 99.102 156.0531
3133.059600 98.987 156.5435
3155.763041 98.871 157.1250
3178.631001 98.756 157.7953
3201.664672 98.646 158.5490
3224.865254 98.544 159.3772
3248.233957 98.452 160.2682
3271.771999 98.373 161.2074
3295.480608 98.308 162.1776
3319.361019 98.260 163.1606
3343.414477 98.228 164.1375
3367.642236 98.213 165.0901
3392.045560 98.214 166.0019
3416.625721 98.231 166.8584
3441.383999 98.263 167.6478
