* Measurement data measured by REW V5.31.3
* Source: EXCL: Headset (USB-C to 3.5mm Headphone Jack Adapter), MICROPHONE (Master Volume), 0, volume: 0.250
* Format: 256k Log Swept Sine, 1 sweep at -12.0 dBFS with no timing reference
* Dated: Feb 9, 2025 6:24:58 PM
* REW Settings:
*  C-weighting compensation: Off
*  Target level: 75.0 dB
* Note: ; 
* Measurement: Satyr 2 (Geekria) R3
* Smoothing: 1/6 octave
* Frequency Step: 96 ppo
* Start Frequency: 20.0 Hz
*
* Freq(Hz) SPL(dB) Phase(degrees)
20.141602 97.895 -50.3281
20.287556 97.913 -50.5173
20.434568 97.934 -50.7708
20.582645 97.957 -51.0820
20.731796 97.978 -51.4437
20.882027 97.994 -51.8491
21.033346 98.004 -52.2918
21.185763 98.005 -52.7661
21.339284 97.996 -53.2670
21.493917 97.976 -53.7897
21.649671 97.948 -54.3303
21.806553 97.910 -54.8852
21.964572 97.865 -55.4512
22.123737 97.815 -56.0258
22.284054 97.761 -56.6071
22.445534 97.706 -57.1941
22.608183 97.653 -57.7861
22.772012 97.603 -58.3836
22.937027 97.558 -58.9873
23.103238 97.522 -59.5983
23.270654 97.494 -60.2177
23.439282 97.477 -60.8466
23.609133 97.471 -61.4854
23.780215 97.477 -62.1342
23.952536 97.496 -62.7922
24.126106 97.527 -63.4576
24.300934 97.569 -64.1284
24.477028 97.622 -64.8017
24.654399 97.684 -65.4745
24.833055 97.755 -66.1436
25.013005 97.832 -66.8059
25.194260 97.913 -67.4590
25.376828 97.996 -68.1004
25.560719 98.081 -68.7289
25.745942 98.164 -69.3434
25.932508 98.246 -69.9439
26.120426 98.324 -70.5312
26.309705 98.397 -71.1066
26.500356 98.466 -71.6722
26.692388 98.530 -72.2310
26.885812 98.589 -72.7863
27.080638 98.643 -73.3419
27.276876 98.693 -73.9016
27.474535 98.740 -74.4693
27.673627 98.785 -75.0480
27.874161 98.830 -75.6404
28.076149 98.877 -76.2475
28.279600 98.928 -76.8694
28.484526 98.986 -77.5048
28.690937 99.053 -78.1510
28.898843 99.132 -78.8045
29.108256 99.224 -79.4612
29.319186 99.331 -80.1168
29.531645 99.454 -80.7676
29.745644 99.592 -81.4103
29.961193 99.742 -82.0429
30.178304 99.901 -82.6642
30.396989 100.067 -83.2745
30.617258 100.233 -83.8749
30.839123 100.396 -84.4674
31.062596 100.549 -85.0545
31.287688 100.689 -85.6390
31.514412 100.810 -86.2237
31.742778 100.909 -86.8114
31.972800 100.984 -87.4046
32.204488 101.031 -88.0053
32.437855 101.051 -88.6149
32.672913 101.042 -89.2342
32.909674 101.007 -89.8632
33.148151 100.946 -90.5008
33.388356 100.861 -91.1453
33.630302 100.756 -91.7942
33.874001 100.635 -92.4445
34.119466 100.501 -93.0933
34.366710 100.358 -93.7377
34.615745 100.210 -94.3757
34.866585 100.063 -95.0060
35.119243 99.918 -95.6284
35.373731 99.782 -96.2439
35.630064 99.656 -96.8543
35.888254 99.544 -97.4617
36.148315 99.447 -98.0687
36.410261 99.370 -98.6774
36.674104 99.311 -99.2895
36.939860 99.274 -99.9055
37.207542 99.257 -100.5253
37.477163 99.263 -101.1478
37.748738 99.290 -101.7714
38.022281 99.339 -102.3943
38.297806 99.408 -103.0149
38.575327 99.498 -103.6322
38.854860 99.607 -104.2460
39.136419 99.735 -104.8567
39.420017 99.880 -105.4656
39.705671 100.041 -106.0742
39.993395 100.218 -106.6843
40.283203 100.408 -107.2975
40.575112 100.610 -107.9150
40.869136 100.824 -108.5376
41.165290 101.048 -109.1656
41.463591 101.281 -109.7991
41.764053 101.520 -110.4375
42.066693 101.765 -111.0800
42.371525 102.012 -111.7258
42.678567 102.259 -112.3734
42.987834 102.503 -113.0209
43.299341 102.742 -113.6659
43.613106 102.972 -114.3052
43.929145 103.193 -114.9355
44.247473 103.402 -115.5535
44.568109 103.598 -116.1569
44.891068 103.779 -116.7443
45.216367 103.945 -117.3162
45.544023 104.095 -117.8748
45.874054 104.229 -118.4234
46.206476 104.347 -118.9661
46.541307 104.447 -119.5069
46.878565 104.530 -120.0492
47.218266 104.596 -120.5955
47.560429 104.645 -121.1474
47.905072 104.679 -121.7056
48.252212 104.696 -122.2700
48.601867 104.700 -122.8401
48.954056 104.692 -123.4143
49.308798 104.672 -123.9911
49.666109 104.644 -124.5685
50.026010 104.609 -125.1450
50.388520 104.569 -125.7192
50.753656 104.527 -126.2904
51.121437 104.483 -126.8582
51.491884 104.441 -127.4226
51.865016 104.401 -127.9839
52.240851 104.364 -128.5421
52.619410 104.331 -129.0976
53.000712 104.302 -129.6505
53.384777 104.276 -130.2008
53.771625 104.254 -130.7484
54.161276 104.235 -131.2933
54.553751 104.216 -131.8352
54.949070 104.199 -132.3741
55.347254 104.181 -132.9102
55.748323 104.162 -133.4437
56.152298 104.141 -133.9749
56.559201 104.117 -134.5043
56.969052 104.090 -135.0319
57.381873 104.061 -135.5579
57.797686 104.028 -136.0820
58.216512 103.992 -136.6037
58.638373 103.954 -137.1220
59.063291 103.913 -137.6359
59.491288 103.870 -138.1442
59.922386 103.824 -138.6461
60.356608 103.777 -139.1411
60.793977 103.727 -139.6298
61.234515 103.676 -140.1134
61.678246 103.624 -140.5933
62.125192 103.572 -141.0712
62.575377 103.520 -141.5486
63.028824 103.468 -142.0264
63.485557 103.418 -142.5050
63.945599 103.369 -142.9843
64.408975 103.323 -143.4637
64.875709 103.279 -143.9427
65.345825 103.237 -144.4203
65.819348 103.199 -144.8961
66.296302 103.163 -145.3695
66.776713 103.131 -145.8402
67.260604 103.102 -146.3079
67.748002 103.076 -146.7723
68.238932 103.052 -147.2334
68.733420 103.031 -147.6908
69.231490 103.011 -148.1441
69.733170 102.994 -148.5932
70.238485 102.978 -149.0374
70.747463 102.964 -149.4763
71.260128 102.950 -149.9095
71.776508 102.938 -150.3363
72.296630 102.927 -150.7565
72.820521 102.916 -151.1699
73.348209 102.907 -151.5762
73.879720 102.899 -151.9753
74.415083 102.892 -152.3672
74.954326 102.886 -152.7517
75.497475 102.881 -153.1289
76.044561 102.875 -153.4992
76.595612 102.870 -153.8630
77.150655 102.864 -154.2210
77.709720 102.857 -154.5741
78.272837 102.849 -154.9230
78.840034 102.839 -155.2684
79.411342 102.826 -155.6113
79.986789 102.812 -155.9523
80.566406 102.794 -156.2922
81.150224 102.774 -156.6315
81.738272 102.751 -156.9709
82.330581 102.727 -157.3107
82.927182 102.701 -157.6512
83.528107 102.676 -157.9926
84.133386 102.653 -158.3352
84.743051 102.634 -158.6792
85.357134 102.622 -159.0250
85.975667 102.620 -159.3728
86.598682 102.631 -159.7226
87.226212 102.659 -160.0745
87.858289 102.706 -160.4284
88.494946 102.776 -160.7841
89.136217 102.869 -161.1415
89.782135 102.986 -161.5003
90.432733 103.126 -161.8602
91.088046 103.287 -162.2211
91.748108 103.465 -162.5827
92.412952 103.656 -162.9450
93.082615 103.853 -163.3076
93.757130 104.052 -163.6707
94.436533 104.248 -164.0342
95.120859 104.434 -164.3980
95.810144 104.609 -164.7619
96.504423 104.767 -165.1256
97.203734 104.909 -165.4887
97.908112 105.032 -165.8506
98.617595 105.137 -166.2109
99.332219 105.226 -166.5692
100.052021 105.299 -166.9252
100.777039 105.359 -167.2787
101.507311 105.409 -167.6296
102.242875 105.450 -167.9779
102.983769 105.484 -168.3237
103.730032 105.512 -168.6670
104.481702 105.536 -169.0078
105.238820 105.555 -169.3462
106.001424 105.568 -169.6823
106.769554 105.574 -170.0162
107.543250 105.572 -170.3479
108.322553 105.560 -170.6773
109.107503 105.536 -171.0044
109.898141 105.500 -171.3289
110.694508 105.450 -171.6509
111.496646 105.387 -171.9704
112.304596 105.310 -172.2876
113.118402 105.221 -172.6025
113.938104 105.121 -172.9152
114.763747 105.013 -173.2259
115.595372 104.898 -173.5343
116.433024 104.780 -173.8402
117.276746 104.660 -174.1434
118.126581 104.540 -174.4433
118.982575 104.421 -174.7398
119.844772 104.305 -175.0324
120.713217 104.192 -175.3210
121.587954 104.081 -175.6053
122.469031 103.973 -175.8851
123.356492 103.865 -176.1603
124.250384 103.758 -176.4310
125.150753 103.649 -176.6972
126.057647 103.536 -176.9595
126.971113 103.420 -177.2185
127.891198 103.299 -177.4746
128.817950 103.171 -177.7287
129.751418 103.038 -177.9813
130.691651 102.899 -178.2332
131.638696 102.755 -178.4853
132.592604 102.607 -178.7382
133.553425 102.458 -178.9929
134.521208 102.311 -179.2500
135.496004 102.167 -179.5100
136.477864 102.031 -179.7731
137.466839 101.906 179.9608
138.462981 101.795 179.6921
139.466340 101.700 179.4213
140.476971 101.622 179.1490
141.494925 101.563 178.8761
142.520256 101.522 178.6031
143.553016 101.496 178.3306
144.593260 101.483 178.0591
145.641043 101.479 177.7889
146.696418 101.481 177.5205
147.759441 101.483 177.2543
148.830166 101.484 176.9908
149.908651 101.480 176.7307
150.994951 101.468 176.4744
152.089123 101.449 176.2228
153.191223 101.421 175.9766
154.301310 101.386 175.7365
155.419441 101.345 175.5034
156.545674 101.299 175.2779
157.680069 101.250 175.0607
158.822683 101.200 174.8524
159.973578 101.151 174.6536
161.132813 101.103 174.4648
162.300447 101.058 174.2863
163.476543 101.017 174.1186
164.661162 100.979 173.9618
165.854364 100.945 173.8159
167.056213 100.915 173.6810
168.266772 100.891 173.5568
169.486102 100.871 173.4429
170.714268 100.857 173.3386
171.951334 100.848 173.2431
173.197364 100.846 173.1554
174.452424 100.849 173.0742
175.716578 100.858 172.9984
176.989893 100.872 172.9266
178.272434 100.890 172.8572
179.564270 100.912 172.7890
180.865467 100.936 172.7205
182.176092 100.962 172.6504
183.496216 100.987 172.5777
184.825905 101.011 172.5014
186.165229 101.033 172.4205
187.514259 101.054 172.3345
188.873065 101.073 172.2426
190.241717 101.090 172.1442
191.620287 101.106 172.0387
193.008847 101.121 171.9256
194.407468 101.136 171.8045
195.816225 101.150 171.6752
197.235190 101.164 171.5380
198.664438 101.178 171.3933
200.104042 101.191 171.2419
201.554078 101.203 171.0845
203.014622 101.212 170.9218
204.485750 101.220 170.7543
205.967538 101.223 170.5823
207.460064 101.224 170.4059
208.963405 101.220 170.2253
210.477640 101.212 170.0403
212.002848 101.200 169.8513
213.539108 101.185 169.6584
215.086500 101.167 169.4622
216.645105 101.146 169.2631
218.215005 101.122 169.0618
219.796281 101.096 168.8588
221.389015 101.068 168.6545
222.993292 101.036 168.4493
224.609193 101.001 168.2437
226.236804 100.961 168.0382
227.876209 100.916 167.8334
229.527494 100.867 167.6298
231.190745 100.811 167.4278
232.866048 100.749 167.2279
234.553491 100.683 167.0302
236.253163 100.610 166.8348
237.965150 100.534 166.6419
239.689544 100.454 166.4513
241.426433 100.372 166.2629
243.175909 100.288 166.0767
244.938062 100.203 165.8925
246.712984 100.119 165.7103
248.500768 100.035 165.5302
250.301507 99.954 165.3522
252.115295 99.874 165.1764
253.942226 99.799 165.0031
255.782396 99.727 164.8322
257.635901 99.659 164.6640
259.502837 99.597 164.4987
261.383301 99.540 164.3367
263.277392 99.489 164.1782
265.185209 99.445 164.0236
267.106850 99.406 163.8733
269.042417 99.374 163.7276
270.992009 99.347 163.5866
272.955729 99.325 163.4503
274.933678 99.308 163.3185
276.925961 99.295 163.1909
278.932681 99.285 163.0675
280.953942 99.278 162.9480
282.989850 99.274 162.8323
285.040511 99.273 162.7200
287.106032 99.275 162.6110
289.186521 99.280 162.5050
291.282086 99.290 162.4016
293.392836 99.305 162.3007
295.518881 99.326 162.2018
297.660333 99.352 162.1049
299.817302 99.385 162.0096
301.989902 99.422 161.9156
304.178245 99.463 161.8228
306.382446 99.507 161.7310
308.602620 99.550 161.6404
310.838882 99.593 161.5514
313.091348 99.631 161.4642
315.360137 99.665 161.3795
317.645367 99.693 161.2978
319.947156 99.713 161.2195
322.265625 99.724 161.1451
324.600895 99.727 161.0750
326.953086 99.719 161.0094
329.322323 99.702 160.9484
331.708729 99.674 160.8921
334.112427 99.635 160.8403
336.533543 99.586 160.7928
338.972204 99.528 160.7490
341.428536 99.460 160.7082
343.902668 99.384 160.6697
346.394729 99.302 160.6329
348.904848 99.214 160.5970
351.433156 99.123 160.5614
353.979786 99.030 160.5258
356.544869 98.939 160.4896
359.128540 98.852 160.4525
361.730934 98.771 160.4142
364.352185 98.701 160.3742
366.992431 98.642 160.3322
369.651810 98.599 160.2875
372.330459 98.572 160.2398
375.028519 98.562 160.1888
377.746130 98.570 160.1344
380.483434 98.595 160.0767
383.240574 98.635 160.0161
386.017693 98.689 159.9531
388.814937 98.753 159.8884
391.632450 98.824 159.8228
394.470380 98.901 159.7572
397.328875 98.980 159.6928
400.208084 99.059 159.6305
403.108157 99.136 159.5717
406.029245 99.210 159.5173
408.971500 99.280 159.4684
411.935076 99.347 159.4262
414.920127 99.409 159.3917
417.926810 99.468 159.3657
420.955280 99.525 159.3491
424.005695 99.580 159.3427
427.078215 99.635 159.3468
430.173000 99.690 159.3619
433.290211 99.745 159.3878
436.430010 99.801 159.4246
439.592562 99.857 159.4719
442.778031 99.913 159.5294
445.986583 99.968 159.5966
449.218386 100.019 159.6730
452.473607 100.067 159.7576
455.752418 100.109 159.8493
459.054987 100.144 159.9467
462.381489 100.171 160.0482
465.732096 100.189 160.1523
469.106983 100.199 160.2574
472.506325 100.200 160.3622
475.930301 100.194 160.4650
479.379088 100.180 160.5645
482.852867 100.160 160.6592
486.351817 100.134 160.7473
489.876123 100.105 160.8271
493.425968 100.072 160.8969
497.001536 100.037 160.9547
500.603014 100.000 160.9988
504.230589 99.960 161.0274
507.884452 99.918 161.0389
511.564792 99.874 161.0319
515.271802 99.827 161.0052
519.005673 99.778 160.9583
522.766602 99.726 160.8909
526.554785 99.674 160.8032
530.370418 99.621 160.6958
534.213700 99.568 160.5699
538.084833 99.518 160.4270
541.984018 99.472 160.2690
545.911457 99.430 160.0986
549.867357 99.392 159.9191
553.851922 99.359 159.7343
557.865362 99.329 159.5491
561.907884 99.301 159.3685
565.979700 99.274 159.1985
570.081022 99.246 159.0450
574.212064 99.214 158.9143
578.373042 99.178 158.8124
582.564171 99.136 158.7448
586.785671 99.087 158.7161
591.037762 99.031 158.7300
595.320665 98.968 158.7888
599.634604 98.897 158.8932
603.979804 98.820 159.0429
608.356491 98.737 159.2363
612.764893 98.650 159.4714
617.205240 98.559 159.7457
621.677763 98.466 160.0571
626.182696 98.373 160.4035
630.720274 98.283 160.7837
635.290733 98.197 161.1961
639.894312 98.118 161.6392
644.531250 98.050 162.1105
649.201789 97.994 162.6066
653.906173 97.952 163.1220
658.644647 97.927 163.6497
663.417457 97.918 164.1805
668.224854 97.927 164.7037
673.067086 97.950 165.2076
677.944408 97.987 165.6805
682.857073 98.035 166.1112
687.805336 98.091 166.4903
692.789457 98.151 166.8108
697.809695 98.213 167.0681
702.866312 98.274 167.2609
707.959571 98.330 167.3902
713.089738 98.380 167.4599
718.257080 98.423 167.4756
723.461867 98.458 167.4445
728.704370 98.484 167.3743
733.984862 98.501 167.2728
739.303619 98.510 167.1473
744.660918 98.512 167.0048
750.057038 98.507 166.8517
755.492260 98.496 166.6938
760.966869 98.479 166.5366
766.481148 98.456 166.3848
772.035387 98.429 166.2426
777.629873 98.396 166.1135
783.264900 98.358 166.0007
788.940760 98.314 165.9063
794.657750 98.263 165.8323
800.416168 98.207 165.7799
806.216313 98.143 165.7501
812.058489 98.073 165.7436
817.943000 97.997 165.7601
823.870152 97.914 165.7988
829.840255 97.828 165.8578
835.853619 97.737 165.9345
841.910559 97.645 166.0254
848.011390 97.552 166.1262
854.156430 97.460 166.2318
860.346000 97.371 166.3369
866.580422 97.285 166.4358
872.860020 97.204 166.5226
879.185124 97.130 166.5923
885.556062 97.061 166.6401
891.973166 97.000 166.6627
898.436771 96.947 166.6579
904.947215 96.900 166.6254
911.504835 96.862 166.5660
918.109975 96.831 166.4822
924.762978 96.808 166.3770
931.464192 96.793 166.2545
938.213966 96.785 166.1184
945.012651 96.785 165.9727
951.860602 96.791 165.8204
958.758176 96.804 165.6639
965.705733 96.823 165.5049
972.703635 96.848 165.3449
979.752246 96.877 165.1850
986.851935 96.910 165.0264
994.003071 96.946 164.8703
1001.206027 96.986 164.7175
1008.461179 97.030 164.5689
1015.768904 97.077 164.4250
1023.129584 97.129 164.2863
1030.543603 97.186 164.1528
1038.011347 97.250 164.0246
1045.533205 97.320 163.9009
1053.109569 97.398 163.7808
1060.740836 97.484 163.6630
1068.427401 97.577 163.5459
1076.169666 97.677 163.4281
1083.968035 97.783 163.3081
1091.822915 97.893 163.1844
1099.734713 98.005 163.0555
1107.703844 98.118 162.9201
1115.730723 98.230 162.7768
1123.815768 98.338 162.6246
1131.959400 98.440 162.4626
1140.162045 98.537 162.2903
1148.424129 98.627 162.1073
1156.746083 98.710 161.9135
1165.128342 98.786 161.7089
1173.571343 98.857 161.4937
1182.075524 98.922 161.2679
1190.641331 98.984 161.0318
1199.269209 99.044 160.7856
1207.959608 99.101 160.5298
1216.712981 99.157 160.2646
1225.529785 99.212 159.9905
1234.410479 99.266 159.7077
1243.355526 99.319 159.4160
1252.365393 99.369 159.1147
1261.440549 99.417 158.8030
1270.581467 99.460 158.4794
1279.788624 99.499 158.1423
1289.062500 99.532 157.7908
1298.403578 99.558 157.4246
1307.812346 99.577 157.0450
1317.289293 99.587 156.6545
1326.834914 99.589 156.2573
1336.449707 99.581 155.8590
1346.134173 99.565 155.4664
1355.888816 99.540 155.0864
1365.714145 99.506 154.7255
1375.610673 99.465 154.3893
1385.578915 99.416 154.0819
1395.619391 99.361 153.8065
1405.732624 99.299 153.5649
1415.919142 99.233 153.3588
1426.179476 99.161 153.1891
1436.514160 99.086 153.0569
1446.923734 99.008 152.9634
1457.408740 98.928 152.9099
1467.969724 98.847 152.8983
1478.607238 98.767 152.9312
1489.321836 98.689 153.0107
1500.114076 98.614 153.1389
1510.984521 98.543 153.3158
1521.933737 98.478 153.5396
1532.962297 98.420 153.8062
1544.070773 98.369 154.1094
1555.259747 98.325 154.4427
1566.529800 98.288 154.8002
1577.881521 98.256 155.1777
1589.315501 98.229 155.5732
1600.832336 98.206 155.9870
1612.432627 98.185 156.4211
1624.116978 98.167 156.8788
1635.886000 98.152 157.3630
1647.740304 98.140 157.8764
1659.680509 98.131 158.4209
1671.707238 98.128 158.9970
1683.821118 98.130 159.6037
1696.022780 98.139 160.2385
1708.312860 98.156 160.8975
1720.692000 98.182 161.5757
1733.160843 98.218 162.2669
1745.720041 98.264 162.9631
1758.370248 98.321 163.6549
1771.112124 98.387 164.3323
1783.946332 98.462 164.9852
1796.873543 98.545 165.6041
1809.894429 98.634 166.1809
1823.009670 98.728 166.7090
1836.219950 98.825 167.1838
1849.525956 98.924 167.6025
1862.928384 99.023 167.9651
1876.427931 99.120 168.2747
1890.025301 99.217 168.5372
1903.721204 99.311 168.7596
1917.516352 99.402 168.9492
1931.411466 99.492 169.1121
1945.407270 99.580 169.2524
1959.504493 99.666 169.3715
1973.703870 99.750 169.4682
1988.006142 99.831 169.5391
2002.412054 99.908 169.5795
2016.922357 99.981 169.5850
2031.537808 100.046 169.5525
2046.259169 100.104 169.4819
2061.087206 100.151 169.3754
2076.022694 100.189 169.2372
2091.066410 100.217 169.0720
2106.219139 100.234 168.8837
2121.481671 100.244 168.6748
2136.854802 100.246 168.4454
2152.339333 100.243 168.1946
2167.936071 100.236 167.9207
2183.645829 100.225 167.6220
2199.469427 100.214 167.2967
2215.407689 100.202 166.9424
2231.461446 100.190 166.5568
2247.631536 100.179 166.1368
2263.918800 100.169 165.6798
2280.324089 100.159 165.1839
2296.848258 100.149 164.6485
2313.492167 100.136 164.0749
2330.256685 100.121 163.4662
2347.142685 100.101 162.8271
2364.151049 100.076 162.1631
2381.282662 100.045 161.4799
2398.538418 100.008 160.7830
2415.919216 99.964 160.0769
2433.425962 99.914 159.3658
2451.059570 99.857 158.6536
2468.820958 99.793 157.9449
2486.711052 99.722 157.2443
2504.730786 99.646 156.5568
2522.881098 99.563 155.8867
2541.162934 99.476 155.2374
2559.577248 99.386 154.6117
2578.125000 99.293 154.0114
2596.807157 99.198 153.4377
2615.624692 99.104 152.8920
2634.578586 99.010 152.3752
2653.669829 98.918 151.8887
2672.899414 98.828 151.4341
2692.268345 98.740 151.0138
2711.777632 98.656 150.6314
2731.428290 98.574 150.2916
2751.221345 98.494 150.0009
2771.157829 98.415 149.7668
2791.238781 98.337 149.5980
2811.465248 98.258 149.5030
2831.838284 98.179 149.4897
2852.358952 98.099 149.5647
2873.028321 98.016 149.7330
2893.847468 97.931 149.9987
2914.817480 97.843 150.3647
2935.939449 97.751 150.8333
2957.214476 97.656 151.4062
2978.643672 97.558 152.0844
3000.228152 97.457 152.8682
3021.969041 97.354 153.7569
3043.867475 97.250 154.7484
3065.924593 97.148 155.8390
3088.141547 97.048 157.0230
3110.519493 96.955 158.2920
3133.059600 96.870 159.6347
3155.763041 96.796 161.0362
3178.631001 96.735 162.4785
3201.664672 96.690 163.9404
3224.865254 96.661 165.3989
3248.233957 96.650 166.8299
3271.771999 96.657 168.2107
