* Measurement data measured by REW V5.31.3
* Source: EXCL: Headset (USB-C to 3.5mm Headphone Jack Adapter), MICROPHONE (Master Volume), 0, volume: 0.250
* Format: 256k Log Swept Sine, 1 sweep at -12.0 dBFS with no timing reference
* Dated: Feb 9, 2025 6:26:38 PM
* REW Settings:
*  C-weighting compensation: Off
*  Target level: 75.0 dB
* Note: ; 
* Measurement: Satyr 2 (Geekria) R7
* Smoothing: 1/6 octave
* Frequency Step: 96 ppo
* Start Frequency: 20.0 Hz
*
* Freq(Hz) SPL(dB) Phase(degrees)
20.141602 98.372 -50.4031
20.287556 98.385 -50.6077
20.434568 98.402 -50.8830
20.582645 98.418 -51.2229
20.731796 98.433 -51.6210
20.882027 98.442 -52.0710
21.033346 98.444 -52.5670
21.185763 98.438 -53.1035
21.339284 98.423 -53.6754
21.493917 98.398 -54.2778
21.649671 98.365 -54.9059
21.806553 98.324 -55.5551
21.964572 98.277 -56.2208
22.123737 98.226 -56.8986
22.284054 98.172 -57.5841
22.445534 98.117 -58.2736
22.608183 98.064 -58.9638
22.772012 98.014 -59.6517
22.937027 97.969 -60.3351
23.103238 97.931 -61.0125
23.270654 97.900 -61.6828
23.439282 97.880 -62.3454
23.609133 97.869 -63.0002
23.780215 97.869 -63.6473
23.952536 97.881 -64.2874
24.126106 97.905 -64.9212
24.300934 97.940 -65.5498
24.477028 97.986 -66.1745
24.654399 98.042 -66.7968
24.833055 98.107 -67.4184
25.013005 98.179 -68.0411
25.194260 98.257 -68.6668
25.376828 98.337 -69.2969
25.560719 98.419 -69.9328
25.745942 98.500 -70.5754
25.932508 98.579 -71.2251
26.120426 98.655 -71.8815
26.309705 98.725 -72.5441
26.500356 98.791 -73.2117
26.692388 98.850 -73.8829
26.885812 98.904 -74.5564
27.080638 98.953 -75.2306
27.276876 98.997 -75.9045
27.474535 99.038 -76.5770
27.673627 99.078 -77.2473
27.874161 99.118 -77.9148
28.076149 99.160 -78.5788
28.279600 99.207 -79.2385
28.484526 99.263 -79.8928
28.690937 99.328 -80.5404
28.898843 99.405 -81.1797
29.108256 99.497 -81.8091
29.319186 99.604 -82.4272
29.531645 99.726 -83.0327
29.745644 99.862 -83.6252
29.961193 100.010 -84.2048
30.178304 100.168 -84.7727
30.396989 100.331 -85.3308
30.617258 100.495 -85.8818
30.839123 100.655 -86.4292
31.062596 100.806 -86.9764
31.287688 100.944 -87.5271
31.514412 101.064 -88.0842
31.742778 101.163 -88.6503
31.972800 101.237 -89.2268
32.204488 101.283 -89.8144
32.437855 101.301 -90.4125
32.672913 101.290 -91.0200
32.909674 101.251 -91.6353
33.148151 101.184 -92.2566
33.388356 101.093 -92.8823
33.630302 100.980 -93.5114
33.874001 100.849 -94.1436
34.119466 100.705 -94.7792
34.366710 100.551 -95.4191
34.615745 100.393 -96.0642
34.866585 100.235 -96.7151
35.119243 100.081 -97.3718
35.373731 99.937 -98.0334
35.630064 99.804 -98.6981
35.888254 99.687 -99.3633
36.148315 99.588 -100.0263
36.410261 99.509 -100.6846
36.674104 99.452 -101.3363
36.939860 99.418 -101.9806
37.207542 99.406 -102.6178
37.477163 99.416 -103.2486
37.748738 99.449 -103.8742
38.022281 99.502 -104.4956
38.297806 99.575 -105.1134
38.575327 99.666 -105.7277
38.854860 99.775 -106.3383
39.136419 99.901 -106.9453
39.420017 100.044 -107.5490
39.705671 100.203 -108.1507
39.993395 100.377 -108.7522
40.283203 100.565 -109.3554
40.575112 100.765 -109.9623
40.869136 100.977 -110.5738
41.165290 101.199 -111.1900
41.463591 101.428 -111.8099
41.764053 101.663 -112.4322
42.066693 101.903 -113.0552
42.371525 102.144 -113.6776
42.678567 102.386 -114.2984
42.987834 102.627 -114.9169
43.299341 102.863 -115.5324
43.613106 103.092 -116.1441
43.929145 103.313 -116.7511
44.247473 103.524 -117.3524
44.568109 103.721 -117.9477
44.891068 103.905 -118.5375
45.216367 104.073 -119.1233
45.544023 104.225 -119.7073
45.874054 104.359 -120.2923
46.206476 104.474 -120.8803
46.541307 104.571 -121.4727
46.878565 104.648 -122.0694
47.218266 104.707 -122.6693
47.560429 104.749 -123.2704
47.905072 104.774 -123.8706
48.252212 104.784 -124.4677
48.601867 104.780 -125.0601
48.954056 104.766 -125.6468
49.308798 104.742 -126.2275
49.666109 104.712 -126.8022
50.026010 104.676 -127.3715
50.388520 104.637 -127.9362
50.753656 104.596 -128.4971
51.121437 104.555 -129.0550
51.491884 104.515 -129.6105
51.865016 104.476 -130.1635
52.240851 104.439 -130.7140
52.619410 104.405 -131.2616
53.000712 104.373 -131.8058
53.384777 104.343 -132.3462
53.771625 104.316 -132.8824
54.161276 104.290 -133.4144
54.553751 104.266 -133.9419
54.949070 104.242 -134.4651
55.347254 104.218 -134.9839
55.748323 104.194 -135.4986
56.152298 104.168 -136.0099
56.559201 104.140 -136.5184
56.969052 104.110 -137.0248
57.381873 104.076 -137.5299
57.797686 104.039 -138.0340
58.216512 104.000 -138.5375
58.638373 103.958 -139.0403
59.063291 103.913 -139.5421
59.491288 103.866 -140.0426
59.922386 103.818 -140.5414
60.356608 103.767 -141.0377
60.793977 103.716 -141.5312
61.234515 103.664 -142.0216
61.678246 103.611 -142.5087
62.125192 103.558 -142.9926
62.575377 103.506 -143.4737
63.028824 103.454 -143.9524
63.485557 103.403 -144.4289
63.945599 103.355 -144.9036
64.408975 103.308 -145.3767
64.875709 103.264 -145.8481
65.345825 103.222 -146.3179
65.819348 103.184 -146.7859
66.296302 103.149 -147.2519
66.776713 103.117 -147.7158
67.260604 103.088 -148.1775
67.748002 103.062 -148.6369
68.238932 103.039 -149.0939
68.733420 103.018 -149.5483
69.231490 103.000 -149.9998
69.733170 102.983 -150.4479
70.238485 102.968 -150.8922
70.747463 102.954 -151.3326
71.260128 102.941 -151.7687
71.776508 102.929 -152.2005
72.296630 102.918 -152.6277
72.820521 102.908 -153.0502
73.348209 102.899 -153.4676
73.879720 102.890 -153.8798
74.415083 102.883 -154.2866
74.954326 102.875 -154.6881
75.497475 102.868 -155.0842
76.044561 102.861 -155.4751
76.595612 102.853 -155.8608
77.150655 102.844 -156.2415
77.709720 102.834 -156.6172
78.272837 102.823 -156.9880
78.840034 102.809 -157.3540
79.411342 102.792 -157.7151
79.986789 102.772 -158.0715
80.566406 102.750 -158.4234
81.150224 102.724 -158.7710
81.738272 102.695 -159.1149
82.330581 102.665 -159.4553
82.927182 102.633 -159.7928
83.528107 102.602 -160.1277
84.133386 102.572 -160.4604
84.743051 102.547 -160.7913
85.357134 102.529 -161.1211
85.975667 102.522 -161.4503
86.598682 102.527 -161.7795
87.226212 102.550 -162.1094
87.858289 102.592 -162.4404
88.494946 102.657 -162.7727
89.136217 102.746 -163.1067
89.782135 102.859 -163.4424
90.432733 102.996 -163.7798
91.088046 103.153 -164.1188
91.748108 103.328 -164.4594
92.412952 103.516 -164.8011
93.082615 103.711 -165.1438
93.757130 103.908 -165.4869
94.436533 104.102 -165.8303
95.120859 104.287 -166.1737
95.810144 104.460 -166.5168
96.504423 104.618 -166.8593
97.203734 104.758 -167.2009
97.908112 104.881 -167.5414
98.617595 104.986 -167.8808
99.332219 105.074 -168.2189
100.052021 105.147 -168.5560
100.777039 105.207 -168.8920
101.507311 105.257 -169.2271
102.242875 105.298 -169.5611
102.983769 105.332 -169.8940
103.730032 105.360 -170.2258
104.481702 105.384 -170.5564
105.238820 105.402 -170.8861
106.001424 105.415 -171.2148
106.769554 105.421 -171.5427
107.543250 105.419 -171.8697
108.322553 105.406 -172.1956
109.107503 105.382 -172.5201
109.898141 105.345 -172.8428
110.694508 105.294 -173.1635
111.496646 105.229 -173.4818
112.304596 105.150 -173.7975
113.118402 105.059 -174.1105
113.938104 104.958 -174.4208
114.763747 104.847 -174.7284
115.595372 104.730 -175.0332
116.433024 104.609 -175.3351
117.276746 104.486 -175.6338
118.126581 104.363 -175.9290
118.982575 104.242 -176.2204
119.844772 104.122 -176.5076
120.713217 104.006 -176.7904
121.587954 103.893 -177.0686
122.469031 103.782 -177.3423
123.356492 103.673 -177.6117
124.250384 103.564 -177.8770
125.150753 103.454 -178.1384
126.057647 103.341 -178.3962
126.971113 103.224 -178.6507
127.891198 103.102 -178.9026
128.817950 102.975 -179.1522
129.751418 102.841 -179.4004
130.691651 102.701 -179.6479
131.638696 102.557 -179.8956
132.592604 102.409 179.8558
133.553425 102.259 179.6058
134.521208 102.110 179.3539
135.496004 101.965 179.0999
136.477864 101.827 178.8437
137.466839 101.699 178.5853
138.462981 101.585 178.3250
139.466340 101.488 178.0627
140.476971 101.407 177.7990
141.494925 101.345 177.5340
142.520256 101.300 177.2683
143.553016 101.271 177.0027
144.593260 101.255 176.7378
145.641043 101.247 176.4745
146.696418 101.245 176.2139
147.759441 101.244 175.9569
148.830166 101.242 175.7044
149.908651 101.234 175.4572
150.994951 101.219 175.2162
152.089123 101.196 174.9817
153.191223 101.165 174.7543
154.301310 101.127 174.5344
155.419441 101.082 174.3224
156.545674 101.033 174.1189
157.680069 100.981 173.9244
158.822683 100.928 173.7395
159.973578 100.876 173.5646
161.132813 100.825 173.4003
162.300447 100.778 173.2466
163.476543 100.733 173.1039
164.661162 100.693 172.9722
165.854364 100.657 172.8517
167.056213 100.626 172.7424
168.266772 100.600 172.6441
169.486102 100.579 172.5562
170.714268 100.564 172.4780
171.951334 100.554 172.4082
173.197364 100.551 172.3458
174.452424 100.554 172.2894
175.716578 100.563 172.2379
176.989893 100.577 172.1898
178.272434 100.596 172.1440
179.564270 100.618 172.0992
180.865467 100.642 172.0542
182.176092 100.668 172.0076
183.496216 100.693 171.9583
184.825905 100.718 171.9052
186.165229 100.741 171.8470
187.514259 100.762 171.7831
188.873065 100.781 171.7127
190.241717 100.798 171.6353
191.620287 100.815 171.5505
193.008847 100.830 171.4584
194.407468 100.845 171.3590
195.816225 100.860 171.2524
197.235190 100.874 171.1388
198.664438 100.888 171.0183
200.104042 100.902 170.8913
201.554078 100.914 170.7581
203.014622 100.924 170.6191
204.485750 100.931 170.4749
205.967538 100.935 170.3262
207.460064 100.935 170.1736
208.963405 100.931 170.0176
210.477640 100.924 169.8587
212.002848 100.913 169.6971
213.539108 100.898 169.5333
215.086500 100.880 169.3673
216.645105 100.859 169.1994
218.215005 100.836 169.0298
219.796281 100.811 168.8586
221.389015 100.783 168.6860
222.993292 100.752 168.5122
224.609193 100.718 168.3373
226.236804 100.679 168.1617
227.876209 100.636 167.9857
229.527494 100.587 167.8094
231.190745 100.533 167.6333
232.866048 100.473 167.4576
234.553491 100.407 167.2825
236.253163 100.337 167.1083
237.965150 100.263 166.9352
239.689544 100.185 166.7635
241.426433 100.105 166.5937
243.175909 100.024 166.4256
244.938062 99.942 166.2594
246.712984 99.862 166.0948
248.500768 99.783 165.9317
250.301507 99.706 165.7697
252.115295 99.633 165.6087
253.942226 99.563 165.4486
255.782396 99.497 165.2896
257.635901 99.437 165.1317
259.502837 99.381 164.9749
261.383301 99.332 164.8193
263.277392 99.288 164.6652
265.185209 99.251 164.5124
267.106850 99.219 164.3612
269.042417 99.194 164.2116
270.992009 99.174 164.0636
272.955729 99.159 163.9170
274.933678 99.148 163.7719
276.925961 99.141 163.6281
278.932681 99.137 163.4855
280.953942 99.135 163.3440
282.989850 99.136 163.2036
285.040511 99.138 163.0640
287.106032 99.144 162.9253
289.186521 99.152 162.7876
291.282086 99.164 162.6509
293.392836 99.181 162.5154
295.518881 99.203 162.3813
297.660333 99.230 162.2486
299.817302 99.263 162.1177
301.989902 99.300 161.9887
304.178245 99.340 161.8621
306.382446 99.383 161.7380
308.602620 99.425 161.6171
310.838882 99.466 161.4995
313.091348 99.504 161.3857
315.360137 99.536 161.2759
317.645367 99.562 161.1705
319.947156 99.581 161.0696
322.265625 99.591 160.9733
324.600895 99.592 160.8818
326.953086 99.584 160.7949
329.322323 99.565 160.7125
331.708729 99.536 160.6343
334.112427 99.497 160.5600
336.533543 99.447 160.4892
338.972204 99.388 160.4215
341.428536 99.320 160.3567
343.902668 99.243 160.2946
346.394729 99.159 160.2350
348.904848 99.070 160.1780
351.433156 98.977 160.1235
353.979786 98.882 160.0714
356.544869 98.789 160.0216
359.128540 98.699 159.9739
361.730934 98.616 159.9277
364.352185 98.542 159.8827
366.992431 98.481 159.8381
369.651810 98.434 159.7935
372.330459 98.403 159.7485
375.028519 98.389 159.7029
377.746130 98.393 159.6565
380.483434 98.413 159.6096
383.240574 98.449 159.5623
386.017693 98.498 159.5153
388.814937 98.559 159.4691
391.632450 98.627 159.4245
394.470380 98.700 159.3822
397.328875 98.776 159.3430
400.208084 98.852 159.3076
403.108157 98.927 159.2767
406.029245 99.000 159.2511
408.971500 99.069 159.2314
411.935076 99.134 159.2183
414.920127 99.196 159.2127
417.926810 99.255 159.2151
420.955280 99.312 159.2261
424.005695 99.367 159.2462
427.078215 99.423 159.2757
430.173000 99.479 159.3148
433.290211 99.536 159.3636
436.430010 99.595 159.4221
439.592562 99.654 159.4899
442.778031 99.713 159.5667
445.986583 99.771 159.6517
449.218386 99.827 159.7438
452.473607 99.879 159.8419
455.752418 99.925 159.9445
459.054987 99.965 160.0498
462.381489 99.997 160.1562
465.732096 100.021 160.2618
469.106983 100.036 160.3648
472.506325 100.042 160.4633
475.930301 100.040 160.5555
479.379088 100.032 160.6396
482.852867 100.016 160.7140
486.351817 99.996 160.7771
489.876123 99.971 160.8274
493.425968 99.942 160.8635
497.001536 99.910 160.8841
500.603014 99.875 160.8882
504.230589 99.837 160.8746
507.884452 99.796 160.8426
511.564792 99.752 160.7917
515.271802 99.704 160.7219
519.005673 99.653 160.6333
522.766602 99.599 160.5266
526.554785 99.543 160.4029
530.370418 99.485 160.2635
534.213700 99.428 160.1097
538.084833 99.373 159.9435
541.984018 99.320 159.7667
545.911457 99.271 159.5818
549.867357 99.227 159.3918
553.851922 99.187 159.2006
557.865362 99.150 159.0126
561.907884 99.115 158.8334
565.979700 99.080 158.6688
570.081022 99.044 158.5258
574.212064 99.004 158.4120
578.373042 98.959 158.3353
582.564171 98.907 158.3040
586.785671 98.848 158.3264
591.037762 98.782 158.4096
595.320665 98.708 158.5596
599.634604 98.628 158.7800
603.979804 98.544 159.0713
608.356491 98.457 159.4307
612.764893 98.370 159.8522
617.205240 98.284 160.3267
621.677763 98.203 160.8426
626.182696 98.128 161.3870
630.720274 98.063 161.9464
635.290733 98.010 162.5071
639.894312 97.969 163.0564
644.531250 97.943 163.5822
649.201789 97.933 164.0741
653.906173 97.938 164.5233
658.644647 97.958 164.9225
663.417457 97.991 165.2666
668.224854 98.035 165.5521
673.067086 98.087 165.7776
677.944408 98.145 165.9435
682.857073 98.204 166.0518
687.805336 98.263 166.1061
692.789457 98.318 166.1113
697.809695 98.367 166.0735
702.866312 98.409 165.9993
707.959571 98.441 165.8960
713.089738 98.464 165.7710
718.257080 98.478 165.6313
723.461867 98.481 165.4838
728.704370 98.476 165.3344
733.984862 98.463 165.1879
739.303619 98.442 165.0489
744.660918 98.415 164.9209
750.057038 98.384 164.8073
755.492260 98.348 164.7111
760.966869 98.309 164.6349
766.481148 98.266 164.5811
772.035387 98.222 164.5514
777.629873 98.174 164.5470
783.264900 98.125 164.5683
788.940760 98.072 164.6147
794.657750 98.017 164.6846
800.416168 97.959 164.7753
806.216313 97.898 164.8828
812.058489 97.835 165.0020
817.943000 97.769 165.1269
823.870152 97.701 165.2506
829.840255 97.631 165.3658
835.853619 97.560 165.4654
841.910559 97.488 165.5433
848.011390 97.415 165.5946
854.156430 97.342 165.6162
860.346000 97.269 165.6069
866.580422 97.196 165.5672
872.860020 97.123 165.4991
879.185124 97.050 165.4062
885.556062 96.979 165.2928
891.973166 96.909 165.1642
898.436771 96.841 165.0259
904.947215 96.776 164.8835
911.504835 96.716 164.7425
918.109975 96.661 164.6080
924.762978 96.612 164.4844
931.464192 96.570 164.3750
938.213966 96.536 164.2825
945.012651 96.512 164.2081
951.860602 96.497 164.1518
958.758176 96.491 164.1119
965.705733 96.496 164.0859
972.703635 96.509 164.0700
979.752246 96.531 164.0605
986.851935 96.560 164.0538
994.003071 96.597 164.0464
1001.206027 96.641 164.0356
1008.461179 96.691 164.0188
1015.768904 96.747 163.9945
1023.129584 96.809 163.9614
1030.543603 96.878 163.9190
1038.011347 96.954 163.8676
1045.533205 97.037 163.8076
1053.109569 97.127 163.7399
1060.740836 97.225 163.6653
1068.427401 97.330 163.5846
1076.169666 97.443 163.4982
1083.968035 97.561 163.4059
1091.822915 97.683 163.3068
1099.734713 97.809 163.1988
1107.703844 97.936 163.0790
1115.730723 98.062 162.9439
1123.815768 98.186 162.7896
1131.959400 98.305 162.6123
1140.162045 98.418 162.4089
1148.424129 98.524 162.1773
1156.746083 98.623 161.9165
1165.128342 98.713 161.6270
1173.571343 98.795 161.3105
1182.075524 98.870 160.9698
1190.641331 98.938 160.6083
1199.269209 99.000 160.2305
1207.959608 99.056 159.8409
1216.712981 99.108 159.4446
1225.529785 99.156 159.0460
1234.410479 99.200 158.6489
1243.355526 99.240 158.2566
1252.365393 99.276 157.8708
1261.440549 99.308 157.4927
1270.581467 99.334 157.1222
1279.788624 99.356 156.7589
1289.062500 99.373 156.4018
1298.403578 99.383 156.0504
1307.812346 99.388 155.7043
1317.289293 99.386 155.3636
1326.834914 99.378 155.0291
1336.449707 99.363 154.7022
1346.134173 99.343 154.3853
1355.888816 99.317 154.0811
1365.714145 99.285 153.7922
1375.610673 99.247 153.5205
1385.578915 99.205 153.2672
1395.619391 99.157 153.0327
1405.732624 99.105 152.8172
1415.919142 99.048 152.6211
1426.179476 98.987 152.4451
1436.514160 98.921 152.2904
1446.923734 98.852 152.1588
1457.408740 98.780 152.0523
1467.969724 98.707 151.9739
1478.607238 98.632 151.9271
1489.321836 98.556 151.9164
1500.114076 98.481 151.9469
1510.984521 98.408 152.0237
1521.933737 98.338 152.1509
1532.962297 98.271 152.3308
1544.070773 98.209 152.5639
1555.259747 98.153 152.8481
1566.529800 98.104 153.1795
1577.881521 98.060 153.5524
1589.315501 98.024 153.9602
1600.832336 97.993 154.3963
1612.432627 97.968 154.8552
1624.116978 97.948 155.3330
1635.886000 97.932 155.8278
1647.740304 97.920 156.3391
1659.680509 97.912 156.8683
1671.707238 97.908 157.4176
1683.821118 97.908 157.9894
1696.022780 97.914 158.5854
1708.312860 97.927 159.2055
1720.692000 97.947 159.8477
1733.160843 97.976 160.5074
1745.720041 98.015 161.1780
1758.370248 98.062 161.8506
1771.112124 98.119 162.5163
1783.946332 98.185 163.1661
1796.873543 98.257 163.7931
1809.894429 98.336 164.3917
1823.009670 98.421 164.9572
1836.219950 98.510 165.4844
1849.525956 98.603 165.9678
1862.928384 98.699 166.4012
1876.427931 98.797 166.7808
1890.025301 98.896 167.1052
1903.721204 98.994 167.3766
1917.516352 99.090 167.6002
1931.411466 99.184 167.7823
1945.407270 99.274 167.9305
1959.504493 99.362 168.0514
1973.703870 99.445 168.1500
1988.006142 99.525 168.2283
2002.412054 99.600 168.2852
2016.922357 99.671 168.3167
2031.537808 99.736 168.3177
2046.259169 99.794 168.2834
2061.087206 99.844 168.2114
2076.022694 99.885 168.1019
2091.066410 99.917 167.9575
2106.219139 99.939 167.7825
2121.481671 99.953 167.5807
2136.854802 99.959 167.3548
2152.339333 99.959 167.1052
2167.936071 99.956 166.8308
2183.645829 99.950 166.5292
2199.469427 99.942 166.1976
2215.407689 99.935 165.8331
2231.461446 99.927 165.4333
2247.631536 99.920 164.9963
2263.918800 99.912 164.5206
2280.324089 99.905 164.0056
2296.848258 99.897 163.4511
2313.492167 99.886 162.8582
2330.256685 99.873 162.2290
2347.142685 99.854 161.5675
2364.151049 99.830 160.8798
2381.282662 99.799 160.1728
2398.538418 99.760 159.4540
2415.919216 99.715 158.7301
2433.425962 99.662 158.0067
2451.059570 99.602 157.2878
2468.820958 99.537 156.5768
2486.711052 99.465 155.8768
2504.730786 99.388 155.1906
2522.881098 99.306 154.5206
2541.162934 99.221 153.8685
2559.577248 99.133 153.2351
2578.125000 99.044 152.6206
2596.807157 98.953 152.0247
2615.624692 98.863 151.4473
2634.578586 98.772 150.8890
2653.669829 98.683 150.3515
2672.899414 98.594 149.8378
2692.268345 98.507 149.3524
2711.777632 98.420 148.9013
2731.428290 98.334 148.4918
2751.221345 98.248 148.1322
2771.157829 98.162 147.8318
2791.238781 98.075 147.6005
2811.465248 97.985 147.4484
2831.838284 97.893 147.3851
2852.358952 97.799 147.4194
2873.028321 97.701 147.5590
2893.847468 97.600 147.8100
2914.817480 97.495 148.1771
2935.939449 97.386 148.6637
2957.214476 97.274 149.2722
2978.643672 97.160 150.0045
3000.228152 97.043 150.8612
3021.969041 96.926 151.8422
3043.867475 96.809 152.9449
3065.924593 96.697 154.1642
3088.141547 96.590 155.4913
3110.519493 96.493 156.9131
3133.059600 96.407 158.4121
3155.763041 96.336 159.9669
3178.631001 96.282 161.5526
3201.664672 96.246 163.1421
3224.865254 96.229 164.7080
3248.233957 96.232 166.2241
3271.771999 96.253 167.6670
3295.480608 96.291 169.0177
