* Measurement data measured by REW V5.31.3
* Source: EXCL: Headset (USB-C to 3.5mm Headphone Jack Adapter), MICROPHONE (Master Volume), 0, volume: 0.260
* Format: 256k Log Swept Sine, 1 sweep at -12.0 dBFS with no timing reference
* Dated: Feb 9, 2025 9:33:05 PM
* REW Settings:
*  C-weighting compensation: Off
*  Target level: 75.0 dB
* Note: ; 
* Measurement: HD650 (Worn) L1
* Smoothing: 1/6 octave
* Frequency Step: 96 ppo
* Start Frequency: 20.0 Hz
*
* Freq(Hz) SPL(dB) Phase(degrees)
20.141602 90.043 -41.7994
20.287556 90.057 -41.9967
20.434568 90.075 -42.2609
20.582645 90.093 -42.5845
20.731796 90.108 -42.9596
20.882027 90.119 -43.3780
21.033346 90.124 -43.8319
21.185763 90.120 -44.3142
21.339284 90.107 -44.8185
21.493917 90.086 -45.3395
21.649671 90.056 -45.8727
21.806553 90.020 -46.4143
21.964572 89.978 -46.9618
22.123737 89.933 -47.5134
22.284054 89.886 -48.0679
22.445534 89.840 -48.6251
22.608183 89.796 -49.1850
22.772012 89.755 -49.7483
22.937027 89.720 -50.3154
23.103238 89.692 -50.8869
23.270654 89.671 -51.4628
23.439282 89.659 -52.0430
23.609133 89.657 -52.6267
23.780215 89.664 -53.2127
23.952536 89.682 -53.7993
24.126106 89.711 -54.3849
24.300934 89.750 -54.9675
24.477028 89.800 -55.5456
24.654399 89.860 -56.1179
24.833055 89.928 -56.6835
25.013005 90.005 -57.2424
25.194260 90.088 -57.7946
25.376828 90.175 -58.3409
25.560719 90.266 -58.8822
25.745942 90.357 -59.4192
25.932508 90.447 -59.9527
26.120426 90.535 -60.4832
26.309705 90.618 -61.0108
26.500356 90.696 -61.5354
26.692388 90.768 -62.0568
26.885812 90.834 -62.5748
27.080638 90.892 -63.0893
27.276876 90.945 -63.6009
27.474535 90.991 -64.1104
27.673627 91.034 -64.6195
27.874161 91.075 -65.1303
28.076149 91.116 -65.6452
28.279600 91.160 -66.1670
28.484526 91.211 -66.6984
28.690937 91.272 -67.2418
28.898843 91.345 -67.7991
29.108256 91.434 -68.3713
29.319186 91.539 -68.9588
29.531645 91.662 -69.5609
29.745644 91.801 -70.1757
29.961193 91.955 -70.8007
30.178304 92.120 -71.4325
30.396989 92.291 -72.0669
30.617258 92.464 -72.6995
30.839123 92.634 -73.3261
31.062596 92.795 -73.9425
31.287688 92.943 -74.5453
31.514412 93.072 -75.1321
31.742778 93.180 -75.7016
31.972800 93.263 -76.2537
32.204488 93.320 -76.7895
32.437855 93.349 -77.3109
32.672913 93.350 -77.8204
32.909674 93.324 -78.3210
33.148151 93.272 -78.8155
33.388356 93.197 -79.3065
33.630302 93.101 -79.7964
33.874001 92.989 -80.2871
34.119466 92.863 -80.7802
34.366710 92.728 -81.2769
34.615745 92.587 -81.7786
34.866585 92.446 -82.2861
35.119243 92.307 -82.8003
35.373731 92.174 -83.3216
35.630064 92.052 -83.8501
35.888254 91.942 -84.3852
36.148315 91.848 -84.9260
36.410261 91.772 -85.4706
36.674104 91.717 -86.0169
36.939860 91.683 -86.5622
37.207542 91.671 -87.1038
37.477163 91.683 -87.6388
37.748738 91.718 -88.1645
38.022281 91.776 -88.6789
38.297806 91.855 -89.1804
38.575327 91.955 -89.6687
38.854860 92.075 -90.1442
39.136419 92.212 -90.6088
39.420017 92.368 -91.0654
39.705671 92.539 -91.5175
39.993395 92.726 -91.9693
40.283203 92.927 -92.4249
40.575112 93.142 -92.8875
40.869136 93.369 -93.3592
41.165290 93.606 -93.8406
41.463591 93.853 -94.3303
41.764053 94.108 -94.8258
42.066693 94.367 -95.3233
42.371525 94.629 -95.8187
42.678567 94.891 -96.3083
42.987834 95.150 -96.7891
43.299341 95.404 -97.2595
43.613106 95.650 -97.7193
43.929145 95.885 -98.1690
44.247473 96.109 -98.6102
44.568109 96.319 -99.0448
44.891068 96.514 -99.4745
45.216367 96.693 -99.9009
45.544023 96.856 -100.3255
45.874054 97.002 -100.7494
46.206476 97.131 -101.1739
46.541307 97.243 -101.6001
46.878565 97.338 -102.0289
47.218266 97.418 -102.4609
47.560429 97.481 -102.8961
47.905072 97.529 -103.3339
48.252212 97.563 -103.7729
48.601867 97.584 -104.2117
48.954056 97.594 -104.6485
49.308798 97.594 -105.0822
49.666109 97.586 -105.5121
50.026010 97.573 -105.9383
50.388520 97.556 -106.3617
50.753656 97.538 -106.7833
51.121437 97.520 -107.2043
51.491884 97.504 -107.6259
51.865016 97.491 -108.0490
52.240851 97.481 -108.4740
52.619410 97.475 -108.9012
53.000712 97.474 -109.3305
53.384777 97.477 -109.7616
53.771625 97.483 -110.1938
54.161276 97.492 -110.6266
54.553751 97.503 -111.0596
54.949070 97.515 -111.4923
55.347254 97.527 -111.9247
55.748323 97.538 -112.3567
56.152298 97.547 -112.7884
56.559201 97.553 -113.2196
56.969052 97.557 -113.6501
57.381873 97.558 -114.0799
57.797686 97.556 -114.5089
58.216512 97.551 -114.9376
58.638373 97.543 -115.3670
59.063291 97.533 -115.7988
59.491288 97.521 -116.2347
59.922386 97.506 -116.6760
60.356608 97.489 -117.1235
60.793977 97.470 -117.5768
61.234515 97.449 -118.0348
61.678246 97.428 -118.4961
62.125192 97.407 -118.9589
62.575377 97.386 -119.4217
63.028824 97.366 -119.8832
63.485557 97.347 -120.3430
63.945599 97.330 -120.8009
64.408975 97.316 -121.2572
64.875709 97.304 -121.7126
65.345825 97.294 -122.1678
65.819348 97.288 -122.6231
66.296302 97.286 -123.0787
66.776713 97.286 -123.5344
67.260604 97.289 -123.9898
67.748002 97.295 -124.4444
68.238932 97.304 -124.8978
68.733420 97.315 -125.3498
69.231490 97.328 -125.8004
69.733170 97.343 -126.2498
70.238485 97.359 -126.6981
70.747463 97.377 -127.1454
71.260128 97.396 -127.5917
71.776508 97.416 -128.0370
72.296630 97.437 -128.4810
72.820521 97.459 -128.9237
73.348209 97.481 -129.3647
73.879720 97.504 -129.8041
74.415083 97.527 -130.2418
74.954326 97.550 -130.6778
75.497475 97.573 -131.1121
76.044561 97.596 -131.5445
76.595612 97.617 -131.9747
77.150655 97.637 -132.4026
77.709720 97.655 -132.8279
78.272837 97.670 -133.2504
78.840034 97.683 -133.6698
79.411342 97.692 -134.0860
79.986789 97.698 -134.4985
80.566406 97.700 -134.9071
81.150224 97.699 -135.3116
81.738272 97.694 -135.7119
82.330581 97.687 -136.1081
82.927182 97.678 -136.5006
83.528107 97.669 -136.8897
84.133386 97.662 -137.2761
84.743051 97.658 -137.6603
85.357134 97.662 -138.0427
85.975667 97.675 -138.4239
86.598682 97.701 -138.8040
87.226212 97.745 -139.1835
87.858289 97.808 -139.5625
88.494946 97.893 -139.9408
89.136217 98.003 -140.3185
89.782135 98.137 -140.6951
90.432733 98.293 -141.0705
91.088046 98.471 -141.4445
91.748108 98.665 -141.8170
92.412952 98.872 -142.1882
93.082615 99.085 -142.5583
93.757130 99.300 -142.9276
94.436533 99.510 -143.2958
95.120859 99.712 -143.6629
95.810144 99.901 -144.0284
96.504423 100.074 -144.3922
97.203734 100.230 -144.7538
97.908112 100.369 -145.1133
98.617595 100.490 -145.4706
99.332219 100.594 -145.8258
100.052021 100.684 -146.1792
100.777039 100.762 -146.5308
101.507311 100.829 -146.8807
102.242875 100.887 -147.2289
102.983769 100.939 -147.5752
103.730032 100.986 -147.9194
104.481702 101.028 -148.2614
105.238820 101.066 -148.6010
106.001424 101.097 -148.9382
106.769554 101.122 -149.2731
107.543250 101.139 -149.6060
108.322553 101.146 -149.9373
109.107503 101.141 -150.2674
109.898141 101.123 -150.5969
110.694508 101.092 -150.9264
111.496646 101.047 -151.2562
112.304596 100.989 -151.5869
113.118402 100.918 -151.9188
113.938104 100.838 -152.2524
114.763747 100.749 -152.5880
115.595372 100.655 -152.9257
116.433024 100.557 -153.2653
117.276746 100.458 -153.6064
118.126581 100.360 -153.9484
118.982575 100.263 -154.2908
119.844772 100.170 -154.6330
120.713217 100.079 -154.9746
121.587954 99.991 -155.3154
122.469031 99.906 -155.6553
123.356492 99.821 -155.9942
124.250384 99.735 -156.3319
125.150753 99.647 -156.6684
126.057647 99.555 -157.0030
126.971113 99.458 -157.3353
127.891198 99.355 -157.6647
128.817950 99.246 -157.9906
129.751418 99.129 -158.3127
130.691651 99.006 -158.6310
131.638696 98.878 -158.9458
132.592604 98.745 -159.2576
133.553425 98.610 -159.5668
134.521208 98.476 -159.8739
135.496004 98.346 -160.1788
136.477864 98.224 -160.4814
137.466839 98.112 -160.7816
138.462981 98.015 -161.0789
139.466340 97.934 -161.3727
140.476971 97.872 -161.6627
141.494925 97.829 -161.9484
142.520256 97.805 -162.2298
143.553016 97.796 -162.5071
144.593260 97.801 -162.7808
145.641043 97.816 -163.0516
146.696418 97.837 -163.3202
147.759441 97.859 -163.5872
148.830166 97.880 -163.8532
149.908651 97.896 -164.1186
150.994951 97.905 -164.3835
152.089123 97.908 -164.6481
153.191223 97.902 -164.9126
154.301310 97.890 -165.1770
155.419441 97.873 -165.4414
156.545674 97.852 -165.7056
157.680069 97.828 -165.9696
158.822683 97.805 -166.2331
159.973578 97.782 -166.4961
161.132813 97.761 -166.7584
162.300447 97.742 -167.0200
163.476543 97.727 -167.2807
164.661162 97.716 -167.5406
165.854364 97.708 -167.7995
167.056213 97.704 -168.0574
168.266772 97.704 -168.3142
169.486102 97.708 -168.5699
170.714268 97.716 -168.8245
171.951334 97.729 -169.0780
173.197364 97.746 -169.3306
174.452424 97.766 -169.5823
175.716578 97.791 -169.8330
176.989893 97.819 -170.0828
178.272434 97.849 -170.3315
179.564270 97.881 -170.5789
180.865467 97.913 -170.8250
182.176092 97.943 -171.0695
183.496216 97.972 -171.3124
184.825905 97.998 -171.5535
186.165229 98.021 -171.7928
187.514259 98.040 -172.0302
188.873065 98.056 -172.2657
190.241717 98.070 -172.4995
191.620287 98.081 -172.7317
193.008847 98.091 -172.9624
194.407468 98.100 -173.1916
195.816225 98.108 -173.4192
197.235190 98.116 -173.6448
198.664438 98.123 -173.8680
200.104042 98.129 -174.0883
201.554078 98.134 -174.3052
203.014622 98.137 -174.5183
204.485750 98.137 -174.7276
205.967538 98.134 -174.9333
207.460064 98.129 -175.1357
208.963405 98.120 -175.3354
210.477640 98.107 -175.5329
212.002848 98.092 -175.7284
213.539108 98.074 -175.9220
215.086500 98.053 -176.1139
216.645105 98.031 -176.3041
218.215005 98.006 -176.4925
219.796281 97.980 -176.6793
221.389015 97.951 -176.8647
222.993292 97.920 -177.0490
224.609193 97.886 -177.2323
226.236804 97.848 -177.4148
227.876209 97.806 -177.5969
229.527494 97.758 -177.7787
231.190745 97.705 -177.9603
232.866048 97.647 -178.1416
234.553491 97.584 -178.3227
236.253163 97.516 -178.5033
237.965150 97.444 -178.6832
239.689544 97.369 -178.8622
241.426433 97.291 -179.0399
243.175909 97.213 -179.2160
244.938062 97.134 -179.3899
246.712984 97.055 -179.5615
248.500768 96.978 -179.7302
250.301507 96.903 -179.8960
252.115295 96.831 179.9412
253.942226 96.762 179.7816
255.782396 96.698 179.6252
257.635901 96.638 179.4722
259.502837 96.583 179.3229
261.383301 96.534 179.1778
263.277392 96.491 179.0375
265.185209 96.454 178.9026
267.106850 96.423 178.7736
269.042417 96.398 178.6509
270.992009 96.379 178.5350
272.955729 96.365 178.4263
274.933678 96.356 178.3253
276.925961 96.351 178.2319
278.932681 96.350 178.1461
280.953942 96.352 178.0672
282.989850 96.358 177.9944
285.040511 96.367 177.9264
287.106032 96.381 177.8619
289.186521 96.398 177.7993
291.282086 96.421 177.7372
293.392836 96.450 177.6744
295.518881 96.486 177.6098
297.660333 96.528 177.5428
299.817302 96.576 177.4728
301.989902 96.629 177.3997
304.178245 96.686 177.3234
306.382446 96.746 177.2438
308.602620 96.805 177.1613
310.838882 96.863 177.0763
313.091348 96.918 176.9892
315.360137 96.967 176.9007
317.645367 97.010 176.8116
319.947156 97.045 176.7226
322.265625 97.071 176.6342
324.600895 97.089 176.5468
326.953086 97.096 176.4606
329.322323 97.093 176.3758
331.708729 97.080 176.2925
334.112427 97.056 176.2107
336.533543 97.021 176.1305
338.972204 96.977 176.0521
341.428536 96.923 175.9755
343.902668 96.861 175.9008
346.394729 96.791 175.8283
348.904848 96.716 175.7579
351.433156 96.637 175.6896
353.979786 96.556 175.6234
356.544869 96.476 175.5592
359.128540 96.400 175.4971
361.730934 96.330 175.4370
364.352185 96.270 175.3790
366.992431 96.222 175.3232
369.651810 96.188 175.2694
372.330459 96.171 175.2179
375.028519 96.172 175.1685
377.746130 96.191 175.1212
380.483434 96.227 175.0758
383.240574 96.279 175.0323
386.017693 96.346 174.9904
388.814937 96.423 174.9500
391.632450 96.510 174.9108
394.470380 96.602 174.8725
397.328875 96.697 174.8350
400.208084 96.793 174.7980
403.108157 96.888 174.7612
406.029245 96.981 174.7246
408.971500 97.071 174.6881
411.935076 97.158 174.6517
414.920127 97.241 174.6157
417.926810 97.323 174.5800
420.955280 97.402 174.5448
424.005695 97.480 174.5101
427.078215 97.557 174.4760
430.173000 97.635 174.4426
433.290211 97.713 174.4099
436.430010 97.791 174.3781
439.592562 97.869 174.3472
442.778031 97.946 174.3173
445.986583 98.020 174.2883
449.218386 98.090 174.2599
452.473607 98.155 174.2322
455.752418 98.212 174.2049
459.054987 98.261 174.1778
462.381489 98.300 174.1510
465.732096 98.329 174.1246
469.106983 98.347 174.0986
472.506325 98.355 174.0735
475.930301 98.353 174.0493
479.379088 98.342 174.0264
482.852867 98.323 174.0049
486.351817 98.297 173.9852
489.876123 98.265 173.9673
493.425968 98.227 173.9514
497.001536 98.186 173.9377
500.603014 98.141 173.9261
504.230589 98.093 173.9164
507.884452 98.042 173.9085
511.564792 97.989 173.9022
515.271802 97.932 173.8972
519.005673 97.874 173.8933
522.766602 97.815 173.8905
526.554785 97.756 173.8886
530.370418 97.698 173.8875
534.213700 97.644 173.8871
538.084833 97.595 173.8873
541.984018 97.553 173.8882
545.911457 97.520 173.8898
549.867357 97.497 173.8922
553.851922 97.483 173.8953
557.865362 97.478 173.8992
561.907884 97.480 173.9035
565.979700 97.489 173.9081
570.081022 97.501 173.9127
574.212064 97.515 173.9173
578.373042 97.529 173.9220
582.564171 97.540 173.9272
586.785671 97.548 173.9329
591.037762 97.550 173.9394
595.320665 97.546 173.9469
599.634604 97.535 173.9554
603.979804 97.517 173.9649
608.356491 97.493 173.9756
612.764893 97.462 173.9873
617.205240 97.426 174.0000
621.677763 97.385 174.0135
626.182696 97.342 174.0273
630.720274 97.297 174.0412
635.290733 97.253 174.0544
639.894312 97.211 174.0661
644.531250 97.174 174.0759
649.201789 97.142 174.0835
653.906173 97.117 174.0887
658.644647 97.099 174.0918
663.417457 97.089 174.0931
668.224854 97.085 174.0932
673.067086 97.087 174.0926
677.944408 97.093 174.0917
682.857073 97.102 174.0909
687.805336 97.112 174.0902
692.789457 97.122 174.0895
697.809695 97.129 174.0882
702.866312 97.135 174.0858
707.959571 97.136 174.0811
713.089738 97.133 174.0730
718.257080 97.126 174.0604
723.461867 97.115 174.0421
728.704370 97.099 174.0174
733.984862 97.079 173.9858
739.303619 97.055 173.9474
744.660918 97.027 173.9028
750.057038 96.996 173.8533
755.492260 96.962 173.8014
760.966869 96.924 173.7505
766.481148 96.883 173.7054
772.035387 96.839 173.6721
777.629873 96.789 173.6575
783.264900 96.736 173.6687
788.940760 96.678 173.7120
794.657750 96.616 173.7908
800.416168 96.552 173.9037
806.216313 96.486 174.0439
812.058489 96.418 174.1997
817.943000 96.350 174.3575
823.870152 96.281 174.5050
829.840255 96.211 174.6328
835.853619 96.139 174.7355
841.910559 96.065 174.8109
848.011390 95.989 174.8595
854.156430 95.911 174.8834
860.346000 95.832 174.8857
866.580422 95.752 174.8700
872.860020 95.673 174.8395
879.185124 95.595 174.7970
885.556062 95.519 174.7446
891.973166 95.447 174.6838
898.436771 95.380 174.6156
904.947215 95.318 174.5405
911.504835 95.263 174.4588
918.109975 95.216 174.3704
924.762978 95.177 174.2750
931.464192 95.146 174.1724
938.213966 95.123 174.0624
945.012651 95.109 173.9453
951.860602 95.101 173.8222
958.758176 95.100 173.6953
965.705733 95.104 173.5671
972.703635 95.112 173.4411
979.752246 95.123 173.3207
986.851935 95.136 173.2103
994.003071 95.152 173.1150
1001.206027 95.169 173.0405
1008.461179 95.188 172.9932
1015.768904 95.210 172.9793
1023.129584 95.238 173.0037
1030.543603 95.272 173.0690
1038.011347 95.316 173.1744
1045.533205 95.372 173.3151
1053.109569 95.441 173.4825
1060.740836 95.523 173.6656
1068.427401 95.619 173.8522
1076.169666 95.728 174.0310
1083.968035 95.847 174.1923
1091.822915 95.973 174.3291
1099.734713 96.104 174.4373
1107.703844 96.236 174.5156
1115.730723 96.367 174.5650
1123.815768 96.494 174.5880
1131.959400 96.615 174.5875
1140.162045 96.730 174.5666
1148.424129 96.837 174.5280
1156.746083 96.937 174.4739
1165.128342 97.030 174.4062
1173.571343 97.116 174.3264
1182.075524 97.198 174.2360
1190.641331 97.275 174.1370
1199.269209 97.349 174.0312
1207.959608 97.421 173.9204
1216.712981 97.492 173.8063
1225.529785 97.562 173.6899
1234.410479 97.631 173.5721
1243.355526 97.698 173.4537
1252.365393 97.764 173.3352
1261.440549 97.828 173.2176
1270.581467 97.888 173.1014
1279.788624 97.945 172.9875
1289.062500 97.998 172.8763
1298.403578 98.047 172.7682
1307.812346 98.093 172.6633
1317.289293 98.134 172.5611
1326.834914 98.173 172.4608
1336.449707 98.208 172.3612
1346.134173 98.241 172.2612
1355.888816 98.271 172.1595
1365.714145 98.299 172.0554
1375.610673 98.324 171.9478
1385.578915 98.346 171.8361
1395.619391 98.366 171.7193
1405.732624 98.383 171.5972
1415.919142 98.396 171.4702
1426.179476 98.406 171.3395
1436.514160 98.413 171.2070
1446.923734 98.418 171.0751
1457.408740 98.420 170.9463
1467.969724 98.422 170.8232
1478.607238 98.424 170.7083
1489.321836 98.426 170.6036
1500.114076 98.430 170.5116
1510.984521 98.436 170.4341
1521.933737 98.445 170.3726
1532.962297 98.457 170.3278
1544.070773 98.472 170.2994
1555.259747 98.492 170.2855
1566.529800 98.514 170.2832
1577.881521 98.540 170.2890
1589.315501 98.568 170.2988
1600.832336 98.599 170.3086
1612.432627 98.630 170.3148
1624.116978 98.662 170.3145
1635.886000 98.694 170.3058
1647.740304 98.725 170.2881
1659.680509 98.755 170.2627
1671.707238 98.782 170.2322
1683.821118 98.808 170.2003
1696.022780 98.831 170.1711
1708.312860 98.854 170.1481
1720.692000 98.876 170.1338
1733.160843 98.897 170.1300
1745.720041 98.918 170.1374
1758.370248 98.939 170.1565
1771.112124 98.960 170.1877
1783.946332 98.981 170.2319
1796.873543 99.001 170.2903
1809.894429 99.020 170.3644
1823.009670 99.039 170.4549
1836.219950 99.057 170.5608
1849.525956 99.075 170.6798
1862.928384 99.093 170.8085
1876.427931 99.112 170.9432
1890.025301 99.131 171.0803
1903.721204 99.151 171.2170
1917.516352 99.171 171.3509
1931.411466 99.191 171.4802
1945.407270 99.210 171.6044
1959.504493 99.227 171.7240
1973.703870 99.242 171.8406
1988.006142 99.252 171.9566
2002.412054 99.258 172.0750
2016.922357 99.258 172.1989
2031.537808 99.251 172.3308
2046.259169 99.237 172.4727
2061.087206 99.217 172.6252
2076.022694 99.189 172.7880
2091.066410 99.156 172.9590
2106.219139 99.117 173.1356
2121.481671 99.074 173.3142
2136.854802 99.027 173.4911
2152.339333 98.978 173.6627
2167.936071 98.928 173.8258
2183.645829 98.877 173.9776
2199.469427 98.828 174.1161
2215.407689 98.780 174.2407
2231.461446 98.734 174.3522
2247.631536 98.690 174.4528
2263.918800 98.649 174.5462
2280.324089 98.610 174.6365
2296.848258 98.574 174.7277
2313.492167 98.541 174.8228
2330.256685 98.512 174.9231
2347.142685 98.487 175.0280
2364.151049 98.466 175.1348
2381.282662 98.449 175.2393
2398.538418 98.437 175.3365
2415.919216 98.429 175.4211
2433.425962 98.424 175.4892
2451.059570 98.423 175.5383
2468.820958 98.424 175.5681
2486.711052 98.427 175.5800
2504.730786 98.431 175.5775
2522.881098 98.438 175.5651
2541.162934 98.447 175.5479
2559.577248 98.459 175.5301
2578.125000 98.476 175.5146
2596.807157 98.500 175.5021
2615.624692 98.531 175.4912
2634.578586 98.571 175.4789
2653.669829 98.621 175.4608
2672.899414 98.682 175.4330
2692.268345 98.752 175.3923
2711.777632 98.831 175.3373
2731.428290 98.918 175.2688
2751.221345 99.011 175.1896
2771.157829 99.109 175.1042
2791.238781 99.210 175.0175
2811.465248 99.312 174.9343
2831.838284 99.414 174.8579
2852.358952 99.515 174.7909
2873.028321 99.613 174.7346
2893.847468 99.706 174.6901
2914.817480 99.792 174.6582
2935.939449 99.871 174.6401
2957.214476 99.942 174.6375
2978.643672 100.003 174.6521
3000.228152 100.056 174.6855
3021.969041 100.101 174.7382
3043.867475 100.137 174.8095
3065.924593 100.167 174.8969
3088.141547 100.192 174.9966
3110.519493 100.212 175.1034
3133.059600 100.228 175.2116
3155.763041 100.242 175.3148
3178.631001 100.255 175.4065
3201.664672 100.266 175.4808
3224.865254 100.277 175.5331
3248.233957 100.286 175.5598
3271.771999 100.295 175.5593
3295.480608 100.302 175.5314
3319.361019 100.307 175.4772
3343.414477 100.309 175.3988
3367.642236 100.309 175.2992
3392.045560 100.307 175.1821
3416.625721 100.301 175.0512
3441.383999 100.293 174.9104
