* Measurement data measured by REW V5.31.3
* Source: EXCL: Headset (USB-C to 3.5mm Headphone Jack Adapter), MICROPHONE (Master Volume), 0, volume: 0.260
* Format: 256k Log Swept Sine, 1 sweep at -12.0 dBFS with no timing reference
* Dated: Feb 9, 2025 9:20:32 PM
* REW Settings:
*  C-weighting compensation: Off
*  Target level: 75.0 dB
* Note: ; 
* Measurement: KSC75 L9
* Smoothing: 1/6 octave
* Frequency Step: 96 ppo
* Start Frequency: 20.0 Hz
*
* Freq(Hz) SPL(dB) Phase(degrees)
20.141602 86.204 10.3667
20.287556 86.246 10.3602
20.434568 86.301 10.3405
20.582645 86.364 10.2938
20.731796 86.431 10.2050
20.882027 86.498 10.0588
21.033346 86.562 9.8412
21.185763 86.618 9.5412
21.339284 86.664 9.1506
21.493917 86.700 8.6658
21.649671 86.723 8.0867
21.806553 86.735 7.4173
21.964572 86.736 6.6649
22.123737 86.728 5.8394
22.284054 86.714 4.9529
22.445534 86.695 4.0184
22.608183 86.675 3.0499
22.772012 86.658 2.0608
22.937027 86.647 1.0643
23.103238 86.644 0.0720
23.270654 86.652 -0.9056
23.439282 86.673 -1.8595
23.609133 86.709 -2.7824
23.780215 86.758 -3.6686
23.952536 86.822 -4.5137
24.126106 86.898 -5.3148
24.300934 86.987 -6.0703
24.477028 87.085 -6.7800
24.654399 87.191 -7.4453
24.833055 87.302 -8.0690
25.013005 87.416 -8.6555
25.194260 87.532 -9.2104
25.376828 87.646 -9.7406
25.560719 87.759 -10.2539
25.745942 87.868 -10.7581
25.932508 87.972 -11.2605
26.120426 88.071 -11.7677
26.309705 88.165 -12.2844
26.500356 88.254 -12.8139
26.692388 88.339 -13.3575
26.885812 88.420 -13.9148
27.080638 88.500 -14.4844
27.276876 88.580 -15.0640
27.474535 88.662 -15.6513
27.673627 88.748 -16.2440
27.874161 88.842 -16.8404
28.076149 88.945 -17.4389
28.279600 89.058 -18.0381
28.484526 89.185 -18.6362
28.690937 89.325 -19.2304
28.898843 89.480 -19.8172
29.108256 89.648 -20.3921
29.319186 89.831 -20.9501
29.531645 90.026 -21.4862
29.745644 90.233 -21.9964
29.961193 90.448 -22.4783
30.178304 90.668 -22.9319
30.396989 90.891 -23.3597
30.617258 91.113 -23.7666
30.839123 91.328 -24.1593
31.062596 91.532 -24.5454
31.287688 91.721 -24.9320
31.514412 91.891 -25.3250
31.742778 92.037 -25.7280
31.972800 92.156 -26.1425
32.204488 92.248 -26.5679
32.437855 92.309 -27.0023
32.672913 92.342 -27.4437
32.909674 92.346 -27.8908
33.148151 92.324 -28.3435
33.388356 92.279 -28.8034
33.630302 92.214 -29.2732
33.874001 92.134 -29.7561
34.119466 92.041 -30.2553
34.366710 91.941 -30.7726
34.615745 91.838 -31.3087
34.866585 91.735 -31.8625
35.119243 91.638 -32.4319
35.373731 91.551 -33.0141
35.630064 91.478 -33.6060
35.888254 91.421 -34.2050
36.148315 91.384 -34.8084
36.410261 91.369 -35.4137
36.674104 91.376 -36.0183
36.939860 91.406 -36.6190
37.207542 91.459 -37.2126
37.477163 91.534 -37.7958
37.748738 91.630 -38.3661
38.022281 91.746 -38.9224
38.297806 91.883 -39.4649
38.575327 92.039 -39.9958
38.854860 92.214 -40.5181
39.136419 92.408 -41.0357
39.420017 92.618 -41.5520
39.705671 92.846 -42.0694
39.993395 93.089 -42.5895
40.283203 93.348 -43.1126
40.575112 93.620 -43.6385
40.869136 93.904 -44.1669
41.165290 94.199 -44.6983
41.463591 94.503 -45.2337
41.764053 94.813 -45.7748
42.066693 95.127 -46.3241
42.371525 95.443 -46.8836
42.678567 95.756 -47.4552
42.987834 96.065 -48.0399
43.299341 96.368 -48.6378
43.613106 96.661 -49.2479
43.929145 96.945 -49.8682
44.247473 97.216 -50.4959
44.568109 97.475 -51.1275
44.891068 97.719 -51.7591
45.216367 97.949 -52.3869
45.544023 98.163 -53.0073
45.874054 98.361 -53.6178
46.206476 98.542 -54.2167
46.541307 98.707 -54.8039
46.878565 98.853 -55.3807
47.218266 98.982 -55.9496
47.560429 99.094 -56.5136
47.905072 99.190 -57.0763
48.252212 99.270 -57.6412
48.601867 99.336 -58.2111
48.954056 99.390 -58.7882
49.308798 99.435 -59.3738
49.666109 99.472 -59.9680
50.026010 99.504 -60.5705
50.388520 99.535 -61.1798
50.753656 99.564 -61.7943
51.121437 99.594 -62.4116
51.491884 99.627 -63.0296
51.865016 99.662 -63.6461
52.240851 99.702 -64.2597
52.619410 99.745 -64.8694
53.000712 99.792 -65.4751
53.384777 99.842 -66.0768
53.771625 99.895 -66.6752
54.161276 99.951 -67.2708
54.553751 100.007 -67.8643
54.949070 100.064 -68.4562
55.347254 100.119 -69.0472
55.748323 100.173 -69.6381
56.152298 100.224 -70.2297
56.559201 100.273 -70.8230
56.969052 100.317 -71.4192
57.381873 100.359 -72.0198
57.797686 100.398 -72.6262
58.216512 100.433 -73.2402
58.638373 100.466 -73.8634
59.063291 100.496 -74.4974
59.491288 100.524 -75.1433
59.922386 100.551 -75.8015
60.356608 100.576 -76.4712
60.793977 100.601 -77.1509
61.234515 100.624 -77.8380
61.678246 100.648 -78.5297
62.125192 100.672 -79.2232
62.575377 100.697 -79.9164
63.028824 100.723 -80.6077
63.485557 100.751 -81.2968
63.945599 100.780 -81.9835
64.408975 100.811 -82.6684
64.875709 100.844 -83.3522
65.345825 100.880 -84.0352
65.819348 100.918 -84.7179
66.296302 100.959 -85.4003
66.776713 101.003 -86.0827
67.260604 101.049 -86.7653
67.748002 101.098 -87.4487
68.238932 101.149 -88.1336
68.733420 101.203 -88.8206
69.231490 101.259 -89.5104
69.733170 101.316 -90.2033
70.238485 101.376 -90.8997
70.747463 101.436 -91.5997
71.260128 101.498 -92.3035
71.776508 101.561 -93.0113
72.296630 101.624 -93.7231
72.820521 101.688 -94.4391
73.348209 101.753 -95.1591
73.879720 101.818 -95.8828
74.415083 101.882 -96.6101
74.954326 101.947 -97.3406
75.497475 102.010 -98.0742
76.044561 102.073 -98.8110
76.595612 102.134 -99.5508
77.150655 102.193 -100.2940
77.709720 102.250 -101.0405
78.272837 102.303 -101.7902
78.840034 102.353 -102.5430
79.411342 102.398 -103.2986
79.986789 102.439 -104.0567
80.566406 102.476 -104.8172
81.150224 102.508 -105.5796
81.738272 102.536 -106.3437
82.330581 102.561 -107.1093
82.927182 102.583 -107.8758
83.528107 102.604 -108.6430
84.133386 102.626 -109.4105
84.743051 102.652 -110.1780
85.357134 102.683 -110.9452
85.975667 102.724 -111.7120
86.598682 102.776 -112.4779
87.226212 102.845 -113.2427
87.858289 102.932 -114.0059
88.494946 103.040 -114.7670
89.136217 103.170 -115.5255
89.782135 103.323 -116.2808
90.432733 103.498 -117.0324
91.088046 103.691 -117.7798
91.748108 103.900 -118.5224
92.412952 104.119 -119.2597
93.082615 104.344 -119.9914
93.757130 104.569 -120.7172
94.436533 104.789 -121.4368
95.120859 104.999 -122.1500
95.810144 105.196 -122.8566
96.504423 105.377 -123.5563
97.203734 105.540 -124.2490
97.908112 105.684 -124.9345
98.617595 105.811 -125.6126
99.332219 105.921 -126.2834
100.052021 106.016 -126.9470
100.777039 106.099 -127.6037
101.507311 106.172 -128.2541
102.242875 106.237 -128.8990
102.983769 106.295 -129.5393
103.730032 106.347 -130.1760
104.481702 106.395 -130.8101
105.238820 106.438 -131.4423
106.001424 106.476 -132.0733
106.769554 106.506 -132.7034
107.543250 106.528 -133.3331
108.322553 106.540 -133.9625
109.107503 106.539 -134.5917
109.898141 106.526 -135.2205
110.694508 106.499 -135.8486
111.496646 106.459 -136.4758
112.304596 106.405 -137.1018
113.118402 106.339 -137.7263
113.938104 106.262 -138.3493
114.763747 106.177 -138.9706
115.595372 106.086 -139.5900
116.433024 105.992 -140.2074
117.276746 105.895 -140.8226
118.126581 105.799 -141.4356
118.982575 105.704 -142.0462
119.844772 105.611 -142.6547
120.713217 105.520 -143.2610
121.587954 105.432 -143.8650
122.469031 105.345 -144.4668
123.356492 105.258 -145.0662
124.250384 105.170 -145.6629
125.150753 105.079 -146.2567
126.057647 104.985 -146.8473
126.971113 104.885 -147.4343
127.891198 104.779 -148.0174
128.817950 104.665 -148.5963
129.751418 104.544 -149.1707
130.691651 104.417 -149.7404
131.638696 104.283 -150.3050
132.592604 104.144 -150.8641
133.553425 104.002 -151.4176
134.521208 103.861 -151.9651
135.496004 103.723 -152.5064
136.477864 103.592 -153.0413
137.466839 103.471 -153.5697
138.462981 103.363 -154.0914
139.466340 103.271 -154.6064
140.476971 103.197 -155.1144
141.494925 103.141 -155.6154
142.520256 103.102 -156.1093
143.553016 103.080 -156.5959
144.593260 103.070 -157.0751
145.641043 103.070 -157.5469
146.696418 103.076 -158.0112
147.759441 103.083 -158.4678
148.830166 103.089 -158.9167
149.908651 103.090 -159.3576
150.994951 103.084 -159.7905
152.089123 103.071 -160.2152
153.191223 103.050 -160.6316
154.301310 103.022 -161.0392
155.419441 102.988 -161.4379
156.545674 102.950 -161.8270
157.680069 102.910 -162.2065
158.822683 102.870 -162.5759
159.973578 102.830 -162.9353
161.132813 102.793 -163.2848
162.300447 102.759 -163.6245
163.476543 102.729 -163.9548
164.661162 102.704 -164.2762
165.854364 102.684 -164.5894
167.056213 102.669 -164.8953
168.266772 102.659 -165.1949
169.486102 102.655 -165.4897
170.714268 102.657 -165.7813
171.951334 102.666 -166.0716
173.197364 102.681 -166.3629
174.452424 102.702 -166.6577
175.716578 102.729 -166.9585
176.989893 102.762 -167.2680
178.272434 102.798 -167.5885
179.564270 102.836 -167.9224
180.865467 102.876 -168.2715
182.176092 102.914 -168.6372
183.496216 102.950 -169.0201
184.825905 102.983 -169.4203
186.165229 103.010 -169.8369
187.514259 103.032 -170.2685
188.873065 103.048 -170.7130
190.241717 103.059 -171.1676
191.620287 103.065 -171.6295
193.008847 103.067 -172.0954
194.407468 103.064 -172.5622
195.816225 103.059 -173.0268
197.235190 103.050 -173.4865
198.664438 103.038 -173.9388
200.104042 103.024 -174.3813
201.554078 103.007 -174.8126
203.014622 102.987 -175.2310
204.485750 102.964 -175.6358
205.967538 102.937 -176.0262
207.460064 102.907 -176.4018
208.963405 102.873 -176.7623
210.477640 102.836 -177.1078
212.002848 102.795 -177.4387
213.539108 102.752 -177.7555
215.086500 102.707 -178.0592
216.645105 102.660 -178.3507
218.215005 102.611 -178.6312
219.796281 102.561 -178.9018
221.389015 102.510 -179.1634
222.993292 102.456 -179.4169
224.609193 102.400 -179.6630
226.236804 102.341 -179.9026
227.876209 102.278 179.8640
229.527494 102.210 179.6362
231.190745 102.138 179.4138
232.866048 102.060 179.1964
234.553491 101.978 178.9840
236.253163 101.891 178.7762
237.965150 101.801 178.5728
239.689544 101.708 178.3734
241.426433 101.614 178.1778
243.175909 101.518 177.9858
244.938062 101.422 177.7973
246.712984 101.328 177.6124
248.500768 101.235 177.4312
250.301507 101.145 177.2538
252.115295 101.058 177.0806
253.942226 100.975 176.9115
255.782396 100.897 176.7469
257.635901 100.824 176.5865
259.502837 100.757 176.4305
261.383301 100.696 176.2787
263.277392 100.641 176.1311
265.185209 100.592 175.9872
267.106850 100.551 175.8470
269.042417 100.515 175.7101
270.992009 100.486 175.5762
272.955729 100.462 175.4453
274.933678 100.443 175.3172
276.925961 100.428 175.1918
278.932681 100.417 175.0691
280.953942 100.409 174.9492
282.989850 100.404 174.8323
285.040511 100.402 174.7185
287.106032 100.402 174.6078
289.186521 100.407 174.5000
291.282086 100.416 174.3950
293.392836 100.430 174.2924
295.518881 100.450 174.1921
297.660333 100.476 174.0938
299.817302 100.508 173.9975
301.989902 100.545 173.9030
304.178245 100.586 173.8102
306.382446 100.630 173.7191
308.602620 100.674 173.6299
310.838882 100.716 173.5425
313.091348 100.756 173.4571
315.360137 100.791 173.3738
317.645367 100.821 173.2926
319.947156 100.843 173.2136
322.265625 100.857 173.1365
324.600895 100.862 173.0615
326.953086 100.857 172.9883
329.322323 100.843 172.9168
331.708729 100.819 172.8472
334.112427 100.784 172.7793
336.533543 100.739 172.7132
338.972204 100.684 172.6488
341.428536 100.619 172.5861
343.902668 100.547 172.5250
346.394729 100.467 172.4654
348.904848 100.381 172.4072
351.433156 100.291 172.3505
353.979786 100.200 172.2951
356.544869 100.110 172.2411
359.128540 100.023 172.1885
361.730934 99.942 172.1374
364.352185 99.871 172.0878
366.992431 99.812 172.0398
369.651810 99.767 171.9934
372.330459 99.739 171.9486
375.028519 99.728 171.9056
377.746130 99.735 171.8644
380.483434 99.759 171.8251
383.240574 99.799 171.7880
386.017693 99.853 171.7530
388.814937 99.919 171.7203
391.632450 99.993 171.6901
394.470380 100.072 171.6622
397.328875 100.155 171.6367
400.208084 100.239 171.6137
403.108157 100.323 171.5930
406.029245 100.404 171.5744
408.971500 100.482 171.5580
411.935076 100.558 171.5436
414.920127 100.630 171.5312
417.926810 100.700 171.5209
420.955280 100.768 171.5125
424.005695 100.835 171.5062
427.078215 100.902 171.5018
430.173000 100.969 171.4991
433.290211 101.037 171.4981
436.430010 101.105 171.4984
439.592562 101.172 171.4998
442.778031 101.239 171.5021
445.986583 101.303 171.5052
449.218386 101.363 171.5089
452.473607 101.417 171.5133
455.752418 101.464 171.5183
459.054987 101.503 171.5239
462.381489 101.532 171.5303
465.732096 101.551 171.5375
469.106983 101.560 171.5457
472.506325 101.558 171.5551
475.930301 101.547 171.5658
479.379088 101.526 171.5780
482.852867 101.498 171.5918
486.351817 101.462 171.6072
489.876123 101.421 171.6242
493.425968 101.375 171.6429
497.001536 101.325 171.6632
500.603014 101.271 171.6851
504.230589 101.215 171.7084
507.884452 101.155 171.7331
511.564792 101.092 171.7592
515.271802 101.026 171.7866
519.005673 100.959 171.8155
522.766602 100.889 171.8457
526.554785 100.820 171.8774
530.370418 100.752 171.9106
534.213700 100.687 171.9453
538.084833 100.627 171.9814
541.984018 100.574 172.0190
545.911457 100.530 172.0579
549.867357 100.494 172.0981
553.851922 100.468 172.1395
557.865362 100.451 172.1819
561.907884 100.441 172.2252
565.979700 100.437 172.2693
570.081022 100.437 172.3145
574.212064 100.439 172.3607
578.373042 100.441 172.4080
582.564171 100.440 172.4568
586.785671 100.435 172.5071
591.037762 100.425 172.5592
595.320665 100.409 172.6131
599.634604 100.387 172.6689
603.979804 100.357 172.7266
608.356491 100.320 172.7861
612.764893 100.277 172.8473
617.205240 100.228 172.9103
621.677763 100.174 172.9752
626.182696 100.117 173.0420
630.720274 100.058 173.1108
635.290733 99.999 173.1818
639.894312 99.943 173.2551
644.531250 99.890 173.3308
649.201789 99.842 173.4089
653.906173 99.801 173.4893
658.644647 99.767 173.5722
663.417457 99.741 173.6575
668.224854 99.721 173.7451
673.067086 99.708 173.8351
677.944408 99.699 173.9274
682.857073 99.693 174.0219
687.805336 99.689 174.1184
692.789457 99.684 174.2171
697.809695 99.678 174.3176
702.866312 99.668 174.4200
707.959571 99.656 174.5239
713.089738 99.639 174.6293
718.257080 99.618 174.7360
723.461867 99.592 174.8441
728.704370 99.563 174.9533
733.984862 99.529 175.0639
739.303619 99.493 175.1759
744.660918 99.454 175.2896
750.057038 99.414 175.4048
755.492260 99.373 175.5219
760.966869 99.331 175.6408
766.481148 99.287 175.7615
772.035387 99.243 175.8839
777.629873 99.198 176.0080
783.264900 99.150 176.1337
788.940760 99.099 176.2610
794.657750 99.045 176.3900
800.416168 98.985 176.5208
806.216313 98.921 176.6534
812.058489 98.850 176.7877
817.943000 98.773 176.9236
823.870152 98.690 177.0610
829.840255 98.602 177.1996
835.853619 98.508 177.3390
841.910559 98.410 177.4791
848.011390 98.308 177.6197
854.156430 98.204 177.7604
860.346000 98.100 177.9015
866.580422 97.995 178.0427
872.860020 97.891 178.1843
879.185124 97.789 178.3264
885.556062 97.691 178.4690
891.973166 97.598 178.6122
898.436771 97.511 178.7563
904.947215 97.430 178.9014
911.504835 97.357 179.0476
918.109975 97.293 179.1950
924.762978 97.239 179.3439
931.464192 97.194 179.4943
938.213966 97.160 179.6463
945.012651 97.135 179.8002
951.860602 97.121 179.9561
958.758176 97.115 -179.8857
965.705733 97.118 -179.7251
972.703635 97.129 -179.5620
979.752246 97.146 -179.3964
986.851935 97.169 -179.2285
994.003071 97.198 -179.0582
1001.206027 97.232 -178.8856
1008.461179 97.270 -178.7105
1015.768904 97.314 -178.5329
1023.129584 97.363 -178.3524
1030.543603 97.418 -178.1690
1038.011347 97.479 -177.9825
1045.533205 97.548 -177.7929
1053.109569 97.625 -177.6003
1060.740836 97.709 -177.4048
1068.427401 97.801 -177.2067
1076.169666 97.900 -177.0065
1083.968035 98.004 -176.8042
1091.822915 98.113 -176.6003
1099.734713 98.224 -176.3948
1107.703844 98.336 -176.1879
1115.730723 98.446 -175.9799
1123.815768 98.554 -175.7710
1131.959400 98.657 -175.5614
1140.162045 98.756 -175.3515
1148.424129 98.848 -175.1412
1156.746083 98.935 -174.9306
1165.128342 99.016 -174.7195
1173.571343 99.093 -174.5078
1182.075524 99.166 -174.2951
1190.641331 99.238 -174.0812
1199.269209 99.309 -173.8661
1207.959608 99.379 -173.6497
1216.712981 99.451 -173.4322
1225.529785 99.524 -173.2141
1234.410479 99.598 -172.9961
1243.355526 99.673 -172.7790
1252.365393 99.748 -172.5635
1261.440549 99.822 -172.3502
1270.581467 99.895 -172.1395
1279.788624 99.966 -171.9313
1289.062500 100.033 -171.7254
1298.403578 100.098 -171.5212
1307.812346 100.159 -171.3181
1317.289293 100.216 -171.1154
1326.834914 100.271 -170.9126
1336.449707 100.323 -170.7092
1346.134173 100.373 -170.5051
1355.888816 100.421 -170.2997
1365.714145 100.466 -170.0929
1375.610673 100.510 -169.8845
1385.578915 100.552 -169.6741
1395.619391 100.592 -169.4618
1405.732624 100.631 -169.2477
1415.919142 100.668 -169.0320
1426.179476 100.705 -168.8150
1436.514160 100.741 -168.5971
1446.923734 100.778 -168.3788
1457.408740 100.816 -168.1605
1467.969724 100.856 -167.9431
1478.607238 100.899 -167.7274
1489.321836 100.944 -167.5140
1500.114076 100.994 -167.3034
1510.984521 101.047 -167.0955
1521.933737 101.103 -166.8897
1532.962297 101.163 -166.6849
1544.070773 101.225 -166.4796
1555.259747 101.290 -166.2719
1566.529800 101.356 -166.0597
1577.881521 101.424 -165.8409
1589.315501 101.493 -165.6140
1600.832336 101.563 -165.3779
1612.432627 101.634 -165.1321
1624.116978 101.706 -164.8772
1635.886000 101.780 -164.6142
1647.740304 101.855 -164.3456
1659.680509 101.933 -164.0741
1671.707238 102.012 -163.8029
1683.821118 102.094 -163.5352
1696.022780 102.178 -163.2738
1708.312860 102.265 -163.0208
1720.692000 102.354 -162.7775
1733.160843 102.445 -162.5448
1745.720041 102.538 -162.3225
1758.370248 102.632 -162.1101
1771.112124 102.726 -161.9062
1783.946332 102.820 -161.7092
1796.873543 102.914 -161.5171
1809.894429 103.006 -161.3276
1823.009670 103.098 -161.1389
1836.219950 103.188 -160.9494
1849.525956 103.277 -160.7579
1862.928384 103.366 -160.5639
1876.427931 103.454 -160.3674
1890.025301 103.543 -160.1692
1903.721204 103.633 -159.9708
1917.516352 103.724 -159.7746
1931.411466 103.817 -159.5835
1945.407270 103.911 -159.4009
1959.504493 104.005 -159.2300
1973.703870 104.098 -159.0740
1988.006142 104.190 -158.9357
2002.412054 104.279 -158.8174
2016.922357 104.363 -158.7207
2031.537808 104.441 -158.6463
2046.259169 104.513 -158.5937
2061.087206 104.577 -158.5612
2076.022694 104.633 -158.5463
2091.066410 104.682 -158.5463
2106.219139 104.723 -158.5585
2121.481671 104.758 -158.5809
2136.854802 104.788 -158.6122
2152.339333 104.816 -158.6523
2167.936071 104.842 -158.7026
2183.645829 104.870 -158.7655
2199.469427 104.899 -158.8446
2215.407689 104.932 -158.9435
2231.461446 104.969 -159.0662
2247.631536 105.011 -159.2161
2263.918800 105.059 -159.3962
2280.324089 105.110 -159.6084
2296.848258 105.166 -159.8539
2313.492167 105.226 -160.1332
2330.256685 105.288 -160.4458
2347.142685 105.353 -160.7913
2364.151049 105.420 -161.1687
2381.282662 105.488 -161.5773
2398.538418 105.556 -162.0161
2415.919216 105.626 -162.4848
2433.425962 105.698 -162.9836
2451.059570 105.770 -163.5141
2468.820958 105.845 -164.0792
2486.711052 105.921 -164.6832
2504.730786 106.000 -165.3309
2522.881098 106.080 -166.0267
2541.162934 106.162 -166.7742
2559.577248 106.245 -167.5747
2578.125000 106.327 -168.4277
2596.807157 106.409 -169.3299
2615.624692 106.490 -170.2757
2634.578586 106.571 -171.2585
2653.669829 106.651 -172.2710
2672.899414 106.731 -173.3067
2692.268345 106.813 -174.3604
2711.777632 106.895 -175.4290
2731.428290 106.977 -176.5110
2751.221345 107.060 -177.6065
2771.157829 107.141 -178.7151
2791.238781 107.218 -179.8353
2811.465248 107.290 179.0370
2831.838284 107.353 177.9080
2852.358952 107.407 176.7859
2873.028321 107.450 175.6789
2893.847468 107.481 174.5936
2914.817480 107.500 173.5342
2935.939449 107.507 172.5021
2957.214476 107.502 171.4956
2978.643672 107.485 170.5104
3000.228152 107.456 169.5405
3021.969041 107.414 168.5793
3043.867475 107.360 167.6211
3065.924593 107.293 166.6616
3088.141547 107.212 165.6980
3110.519493 107.119 164.7286
